# E (eV)   ldos(E)   pdos(E)    pdos(E)    pdos(E)   
  -5.454  0.892E-07  0.297E-07  0.297E-07  0.297E-07
  -5.444  0.143E-06  0.475E-07  0.475E-07  0.475E-07
  -5.434  0.226E-06  0.752E-07  0.752E-07  0.752E-07
  -5.424  0.353E-06  0.118E-06  0.118E-06  0.118E-06
  -5.414  0.547E-06  0.182E-06  0.182E-06  0.182E-06
  -5.404  0.840E-06  0.280E-06  0.280E-06  0.280E-06
  -5.394  0.127E-05  0.425E-06  0.425E-06  0.425E-06
  -5.384  0.192E-05  0.639E-06  0.639E-06  0.639E-06
  -5.374  0.285E-05  0.951E-06  0.951E-06  0.951E-06
  -5.364  0.420E-05  0.140E-05  0.140E-05  0.140E-05
  -5.354  0.613E-05  0.204E-05  0.204E-05  0.204E-05
  -5.344  0.886E-05  0.295E-05  0.295E-05  0.295E-05
  -5.334  0.127E-04  0.422E-05  0.422E-05  0.422E-05
  -5.324  0.179E-04  0.598E-05  0.598E-05  0.598E-05
  -5.314  0.252E-04  0.839E-05  0.839E-05  0.839E-05
  -5.304  0.350E-04  0.117E-04  0.117E-04  0.117E-04
  -5.294  0.481E-04  0.160E-04  0.160E-04  0.160E-04
  -5.284  0.655E-04  0.218E-04  0.218E-04  0.218E-04
  -5.274  0.884E-04  0.295E-04  0.295E-04  0.295E-04
  -5.264  0.118E-03  0.394E-04  0.394E-04  0.394E-04
  -5.254  0.157E-03  0.522E-04  0.522E-04  0.522E-04
  -5.244  0.205E-03  0.685E-04  0.685E-04  0.685E-04
  -5.234  0.267E-03  0.890E-04  0.890E-04  0.890E-04
  -5.224  0.344E-03  0.115E-03  0.115E-03  0.115E-03
  -5.214  0.439E-03  0.146E-03  0.146E-03  0.146E-03
  -5.204  0.556E-03  0.185E-03  0.185E-03  0.185E-03
  -5.194  0.697E-03  0.232E-03  0.232E-03  0.232E-03
  -5.184  0.866E-03  0.289E-03  0.289E-03  0.289E-03
  -5.174  0.107E-02  0.356E-03  0.356E-03  0.356E-03
  -5.164  0.130E-02  0.434E-03  0.434E-03  0.434E-03
  -5.154  0.158E-02  0.526E-03  0.526E-03  0.526E-03
  -5.144  0.189E-02  0.632E-03  0.632E-03  0.632E-03
  -5.134  0.226E-02  0.752E-03  0.752E-03  0.752E-03
  -5.124  0.266E-02  0.888E-03  0.888E-03  0.888E-03
  -5.114  0.312E-02  0.104E-02  0.104E-02  0.104E-02
  -5.104  0.363E-02  0.121E-02  0.121E-02  0.121E-02
  -5.094  0.418E-02  0.139E-02  0.139E-02  0.139E-02
  -5.084  0.479E-02  0.160E-02  0.160E-02  0.160E-02
  -5.074  0.544E-02  0.181E-02  0.181E-02  0.181E-02
  -5.064  0.614E-02  0.205E-02  0.205E-02  0.205E-02
  -5.054  0.688E-02  0.229E-02  0.229E-02  0.229E-02
  -5.044  0.765E-02  0.255E-02  0.255E-02  0.255E-02
  -5.034  0.846E-02  0.282E-02  0.282E-02  0.282E-02
  -5.024  0.929E-02  0.310E-02  0.310E-02  0.310E-02
  -5.014  0.101E-01  0.338E-02  0.338E-02  0.338E-02
  -5.004  0.110E-01  0.367E-02  0.367E-02  0.367E-02
  -4.994  0.119E-01  0.396E-02  0.396E-02  0.396E-02
  -4.984  0.128E-01  0.426E-02  0.426E-02  0.426E-02
  -4.974  0.136E-01  0.455E-02  0.455E-02  0.455E-02
  -4.964  0.145E-01  0.484E-02  0.484E-02  0.484E-02
  -4.954  0.154E-01  0.512E-02  0.512E-02  0.512E-02
  -4.944  0.162E-01  0.539E-02  0.539E-02  0.539E-02
  -4.934  0.170E-01  0.566E-02  0.566E-02  0.566E-02
  -4.924  0.178E-01  0.592E-02  0.592E-02  0.592E-02
  -4.914  0.185E-01  0.617E-02  0.617E-02  0.617E-02
  -4.904  0.192E-01  0.640E-02  0.640E-02  0.640E-02
  -4.894  0.199E-01  0.662E-02  0.662E-02  0.662E-02
  -4.884  0.205E-01  0.683E-02  0.683E-02  0.683E-02
  -4.874  0.211E-01  0.703E-02  0.703E-02  0.703E-02
  -4.864  0.216E-01  0.721E-02  0.721E-02  0.721E-02
  -4.854  0.221E-01  0.738E-02  0.738E-02  0.738E-02
  -4.844  0.226E-01  0.753E-02  0.753E-02  0.753E-02
  -4.834  0.230E-01  0.768E-02  0.768E-02  0.768E-02
  -4.824  0.235E-01  0.782E-02  0.782E-02  0.782E-02
  -4.814  0.239E-01  0.795E-02  0.795E-02  0.795E-02
  -4.804  0.242E-01  0.808E-02  0.808E-02  0.808E-02
  -4.794  0.246E-01  0.820E-02  0.820E-02  0.820E-02
  -4.784  0.249E-01  0.832E-02  0.832E-02  0.832E-02
  -4.774  0.253E-01  0.843E-02  0.843E-02  0.843E-02
  -4.764  0.256E-01  0.855E-02  0.855E-02  0.855E-02
  -4.754  0.260E-01  0.866E-02  0.866E-02  0.866E-02
  -4.744  0.263E-01  0.877E-02  0.877E-02  0.877E-02
  -4.734  0.266E-01  0.888E-02  0.888E-02  0.888E-02
  -4.724  0.270E-01  0.899E-02  0.899E-02  0.899E-02
  -4.714  0.272E-01  0.908E-02  0.908E-02  0.908E-02
  -4.704  0.275E-01  0.917E-02  0.917E-02  0.917E-02
  -4.694  0.277E-01  0.924E-02  0.924E-02  0.924E-02
  -4.684  0.279E-01  0.930E-02  0.930E-02  0.930E-02
  -4.674  0.281E-01  0.935E-02  0.935E-02  0.935E-02
  -4.664  0.282E-01  0.939E-02  0.939E-02  0.939E-02
  -4.654  0.282E-01  0.941E-02  0.941E-02  0.941E-02
  -4.644  0.283E-01  0.943E-02  0.943E-02  0.943E-02
  -4.634  0.283E-01  0.943E-02  0.943E-02  0.943E-02
  -4.624  0.283E-01  0.944E-02  0.944E-02  0.944E-02
  -4.614  0.283E-01  0.944E-02  0.944E-02  0.944E-02
  -4.604  0.283E-01  0.945E-02  0.945E-02  0.945E-02
  -4.594  0.284E-01  0.946E-02  0.946E-02  0.946E-02
  -4.584  0.285E-01  0.949E-02  0.949E-02  0.949E-02
  -4.574  0.286E-01  0.952E-02  0.952E-02  0.952E-02
  -4.564  0.287E-01  0.957E-02  0.957E-02  0.957E-02
  -4.554  0.289E-01  0.964E-02  0.964E-02  0.964E-02
  -4.544  0.291E-01  0.971E-02  0.971E-02  0.971E-02
  -4.534  0.294E-01  0.980E-02  0.980E-02  0.980E-02
  -4.524  0.297E-01  0.989E-02  0.989E-02  0.989E-02
  -4.514  0.299E-01  0.998E-02  0.998E-02  0.998E-02
  -4.504  0.302E-01  0.101E-01  0.101E-01  0.101E-01
  -4.494  0.304E-01  0.101E-01  0.101E-01  0.101E-01
  -4.484  0.306E-01  0.102E-01  0.102E-01  0.102E-01
  -4.474  0.308E-01  0.103E-01  0.103E-01  0.103E-01
  -4.464  0.309E-01  0.103E-01  0.103E-01  0.103E-01
  -4.454  0.309E-01  0.103E-01  0.103E-01  0.103E-01
  -4.444  0.309E-01  0.103E-01  0.103E-01  0.103E-01
  -4.434  0.308E-01  0.103E-01  0.103E-01  0.103E-01
  -4.424  0.307E-01  0.102E-01  0.102E-01  0.102E-01
  -4.414  0.306E-01  0.102E-01  0.102E-01  0.102E-01
  -4.404  0.304E-01  0.101E-01  0.101E-01  0.101E-01
  -4.394  0.302E-01  0.101E-01  0.101E-01  0.101E-01
  -4.384  0.300E-01  0.100E-01  0.100E-01  0.100E-01
  -4.374  0.299E-01  0.995E-02  0.995E-02  0.995E-02
  -4.364  0.297E-01  0.992E-02  0.992E-02  0.992E-02
  -4.354  0.297E-01  0.989E-02  0.989E-02  0.989E-02
  -4.344  0.297E-01  0.989E-02  0.989E-02  0.989E-02
  -4.334  0.297E-01  0.991E-02  0.991E-02  0.991E-02
  -4.324  0.298E-01  0.994E-02  0.994E-02  0.994E-02
  -4.314  0.300E-01  0.100E-01  0.100E-01  0.100E-01
  -4.304  0.302E-01  0.101E-01  0.101E-01  0.101E-01
  -4.294  0.304E-01  0.101E-01  0.101E-01  0.101E-01
  -4.284  0.307E-01  0.102E-01  0.102E-01  0.102E-01
  -4.274  0.309E-01  0.103E-01  0.103E-01  0.103E-01
  -4.264  0.311E-01  0.104E-01  0.104E-01  0.104E-01
  -4.254  0.313E-01  0.104E-01  0.104E-01  0.104E-01
  -4.244  0.315E-01  0.105E-01  0.105E-01  0.105E-01
  -4.234  0.316E-01  0.105E-01  0.105E-01  0.105E-01
  -4.224  0.316E-01  0.105E-01  0.105E-01  0.105E-01
  -4.214  0.316E-01  0.105E-01  0.105E-01  0.105E-01
  -4.204  0.315E-01  0.105E-01  0.105E-01  0.105E-01
  -4.194  0.313E-01  0.104E-01  0.104E-01  0.104E-01
  -4.184  0.312E-01  0.104E-01  0.104E-01  0.104E-01
  -4.174  0.310E-01  0.103E-01  0.103E-01  0.103E-01
  -4.164  0.307E-01  0.102E-01  0.102E-01  0.102E-01
  -4.154  0.305E-01  0.102E-01  0.102E-01  0.102E-01
  -4.144  0.303E-01  0.101E-01  0.101E-01  0.101E-01
  -4.134  0.302E-01  0.101E-01  0.101E-01  0.101E-01
  -4.124  0.300E-01  0.100E-01  0.100E-01  0.100E-01
  -4.114  0.300E-01  0.999E-02  0.999E-02  0.999E-02
  -4.104  0.300E-01  0.999E-02  0.999E-02  0.999E-02
  -4.094  0.300E-01  0.100E-01  0.100E-01  0.100E-01
  -4.084  0.302E-01  0.101E-01  0.101E-01  0.101E-01
  -4.074  0.304E-01  0.101E-01  0.101E-01  0.101E-01
  -4.064  0.306E-01  0.102E-01  0.102E-01  0.102E-01
  -4.054  0.309E-01  0.103E-01  0.103E-01  0.103E-01
  -4.044  0.312E-01  0.104E-01  0.104E-01  0.104E-01
  -4.034  0.315E-01  0.105E-01  0.105E-01  0.105E-01
  -4.024  0.318E-01  0.106E-01  0.106E-01  0.106E-01
  -4.014  0.321E-01  0.107E-01  0.107E-01  0.107E-01
  -4.004  0.323E-01  0.108E-01  0.108E-01  0.108E-01
  -3.994  0.325E-01  0.108E-01  0.108E-01  0.108E-01
  -3.984  0.325E-01  0.108E-01  0.108E-01  0.108E-01
  -3.974  0.325E-01  0.108E-01  0.108E-01  0.108E-01
  -3.964  0.323E-01  0.108E-01  0.108E-01  0.108E-01
  -3.954  0.320E-01  0.107E-01  0.107E-01  0.107E-01
  -3.944  0.317E-01  0.106E-01  0.106E-01  0.106E-01
  -3.934  0.312E-01  0.104E-01  0.104E-01  0.104E-01
  -3.924  0.307E-01  0.102E-01  0.102E-01  0.102E-01
  -3.914  0.301E-01  0.100E-01  0.100E-01  0.100E-01
  -3.904  0.295E-01  0.983E-02  0.983E-02  0.983E-02
  -3.894  0.289E-01  0.963E-02  0.963E-02  0.963E-02
  -3.884  0.283E-01  0.944E-02  0.944E-02  0.944E-02
  -3.874  0.278E-01  0.928E-02  0.928E-02  0.928E-02
  -3.864  0.274E-01  0.914E-02  0.914E-02  0.914E-02
  -3.854  0.271E-01  0.905E-02  0.905E-02  0.905E-02
  -3.844  0.270E-01  0.900E-02  0.900E-02  0.900E-02
  -3.834  0.270E-01  0.899E-02  0.899E-02  0.899E-02
  -3.824  0.271E-01  0.904E-02  0.904E-02  0.904E-02
  -3.814  0.274E-01  0.914E-02  0.914E-02  0.914E-02
  -3.804  0.279E-01  0.929E-02  0.929E-02  0.929E-02
  -3.794  0.284E-01  0.948E-02  0.948E-02  0.948E-02
  -3.784  0.291E-01  0.971E-02  0.971E-02  0.971E-02
  -3.774  0.299E-01  0.997E-02  0.997E-02  0.997E-02
  -3.764  0.308E-01  0.103E-01  0.103E-01  0.103E-01
  -3.754  0.317E-01  0.106E-01  0.106E-01  0.106E-01
  -3.744  0.326E-01  0.109E-01  0.109E-01  0.109E-01
  -3.734  0.334E-01  0.111E-01  0.111E-01  0.111E-01
  -3.724  0.342E-01  0.114E-01  0.114E-01  0.114E-01
  -3.714  0.349E-01  0.116E-01  0.116E-01  0.116E-01
  -3.704  0.355E-01  0.118E-01  0.118E-01  0.118E-01
  -3.694  0.359E-01  0.120E-01  0.120E-01  0.120E-01
  -3.684  0.361E-01  0.120E-01  0.120E-01  0.120E-01
  -3.674  0.362E-01  0.121E-01  0.121E-01  0.121E-01
  -3.664  0.360E-01  0.120E-01  0.120E-01  0.120E-01
  -3.654  0.356E-01  0.119E-01  0.119E-01  0.119E-01
  -3.644  0.350E-01  0.117E-01  0.117E-01  0.117E-01
  -3.634  0.342E-01  0.114E-01  0.114E-01  0.114E-01
  -3.624  0.332E-01  0.111E-01  0.111E-01  0.111E-01
  -3.614  0.321E-01  0.107E-01  0.107E-01  0.107E-01
  -3.604  0.308E-01  0.103E-01  0.103E-01  0.103E-01
  -3.594  0.294E-01  0.982E-02  0.982E-02  0.982E-02
  -3.584  0.280E-01  0.934E-02  0.934E-02  0.934E-02
  -3.574  0.266E-01  0.887E-02  0.887E-02  0.887E-02
  -3.564  0.252E-01  0.841E-02  0.841E-02  0.841E-02
  -3.554  0.239E-01  0.798E-02  0.798E-02  0.798E-02
  -3.544  0.228E-01  0.760E-02  0.760E-02  0.760E-02
  -3.534  0.218E-01  0.728E-02  0.728E-02  0.728E-02
  -3.524  0.211E-01  0.704E-02  0.704E-02  0.704E-02
  -3.514  0.206E-01  0.688E-02  0.688E-02  0.688E-02
  -3.504  0.204E-01  0.681E-02  0.681E-02  0.681E-02
  -3.494  0.205E-01  0.685E-02  0.685E-02  0.685E-02
  -3.484  0.209E-01  0.698E-02  0.698E-02  0.698E-02
  -3.474  0.216E-01  0.722E-02  0.722E-02  0.722E-02
  -3.464  0.226E-01  0.755E-02  0.755E-02  0.755E-02
  -3.454  0.239E-01  0.796E-02  0.796E-02  0.796E-02
  -3.444  0.254E-01  0.846E-02  0.846E-02  0.846E-02
  -3.434  0.270E-01  0.901E-02  0.901E-02  0.901E-02
  -3.424  0.288E-01  0.962E-02  0.962E-02  0.962E-02
  -3.414  0.307E-01  0.102E-01  0.102E-01  0.102E-01
  -3.404  0.327E-01  0.109E-01  0.109E-01  0.109E-01
  -3.394  0.345E-01  0.115E-01  0.115E-01  0.115E-01
  -3.384  0.363E-01  0.121E-01  0.121E-01  0.121E-01
  -3.374  0.380E-01  0.127E-01  0.127E-01  0.127E-01
  -3.364  0.394E-01  0.131E-01  0.131E-01  0.131E-01
  -3.354  0.405E-01  0.135E-01  0.135E-01  0.135E-01
  -3.344  0.414E-01  0.138E-01  0.138E-01  0.138E-01
  -3.334  0.419E-01  0.140E-01  0.140E-01  0.140E-01
  -3.324  0.421E-01  0.140E-01  0.140E-01  0.140E-01
  -3.314  0.419E-01  0.140E-01  0.140E-01  0.140E-01
  -3.304  0.413E-01  0.138E-01  0.138E-01  0.138E-01
  -3.294  0.404E-01  0.135E-01  0.135E-01  0.135E-01
  -3.284  0.392E-01  0.131E-01  0.131E-01  0.131E-01
  -3.274  0.377E-01  0.126E-01  0.126E-01  0.126E-01
  -3.264  0.359E-01  0.120E-01  0.120E-01  0.120E-01
  -3.254  0.339E-01  0.113E-01  0.113E-01  0.113E-01
  -3.244  0.317E-01  0.106E-01  0.106E-01  0.106E-01
  -3.234  0.295E-01  0.982E-02  0.982E-02  0.982E-02
  -3.224  0.272E-01  0.906E-02  0.906E-02  0.906E-02
  -3.214  0.249E-01  0.831E-02  0.831E-02  0.831E-02
  -3.204  0.228E-01  0.758E-02  0.758E-02  0.758E-02
  -3.194  0.207E-01  0.691E-02  0.691E-02  0.691E-02
  -3.184  0.189E-01  0.630E-02  0.630E-02  0.630E-02
  -3.174  0.173E-01  0.577E-02  0.577E-02  0.577E-02
  -3.164  0.160E-01  0.533E-02  0.533E-02  0.533E-02
  -3.154  0.150E-01  0.500E-02  0.500E-02  0.500E-02
  -3.144  0.143E-01  0.478E-02  0.478E-02  0.478E-02
  -3.134  0.141E-01  0.469E-02  0.469E-02  0.469E-02
  -3.124  0.142E-01  0.472E-02  0.472E-02  0.472E-02
  -3.114  0.146E-01  0.488E-02  0.488E-02  0.488E-02
  -3.104  0.155E-01  0.516E-02  0.516E-02  0.516E-02
  -3.094  0.167E-01  0.557E-02  0.557E-02  0.557E-02
  -3.084  0.183E-01  0.609E-02  0.609E-02  0.609E-02
  -3.074  0.201E-01  0.671E-02  0.671E-02  0.671E-02
  -3.064  0.223E-01  0.743E-02  0.743E-02  0.743E-02
  -3.054  0.247E-01  0.822E-02  0.822E-02  0.822E-02
  -3.044  0.272E-01  0.907E-02  0.907E-02  0.907E-02
  -3.034  0.298E-01  0.995E-02  0.995E-02  0.995E-02
  -3.024  0.325E-01  0.108E-01  0.108E-01  0.108E-01
  -3.014  0.351E-01  0.117E-01  0.117E-01  0.117E-01
  -3.004  0.377E-01  0.126E-01  0.126E-01  0.126E-01
  -2.994  0.400E-01  0.133E-01  0.133E-01  0.133E-01
  -2.984  0.420E-01  0.140E-01  0.140E-01  0.140E-01
  -2.974  0.437E-01  0.146E-01  0.146E-01  0.146E-01
  -2.964  0.451E-01  0.150E-01  0.150E-01  0.150E-01
  -2.954  0.460E-01  0.153E-01  0.153E-01  0.153E-01
  -2.944  0.465E-01  0.155E-01  0.155E-01  0.155E-01
  -2.934  0.465E-01  0.155E-01  0.155E-01  0.155E-01
  -2.924  0.460E-01  0.153E-01  0.153E-01  0.153E-01
  -2.914  0.452E-01  0.151E-01  0.151E-01  0.151E-01
  -2.904  0.440E-01  0.147E-01  0.147E-01  0.147E-01
  -2.894  0.424E-01  0.141E-01  0.141E-01  0.141E-01
  -2.884  0.406E-01  0.135E-01  0.135E-01  0.135E-01
  -2.874  0.387E-01  0.129E-01  0.129E-01  0.129E-01
  -2.864  0.366E-01  0.122E-01  0.122E-01  0.122E-01
  -2.854  0.345E-01  0.115E-01  0.115E-01  0.115E-01
  -2.844  0.325E-01  0.108E-01  0.108E-01  0.108E-01
  -2.834  0.306E-01  0.102E-01  0.102E-01  0.102E-01
  -2.824  0.290E-01  0.965E-02  0.965E-02  0.965E-02
  -2.814  0.276E-01  0.921E-02  0.921E-02  0.921E-02
  -2.804  0.266E-01  0.888E-02  0.888E-02  0.888E-02
  -2.794  0.261E-01  0.869E-02  0.869E-02  0.869E-02
  -2.784  0.260E-01  0.866E-02  0.866E-02  0.866E-02
  -2.774  0.264E-01  0.879E-02  0.879E-02  0.879E-02
  -2.764  0.273E-01  0.910E-02  0.910E-02  0.910E-02
  -2.754  0.287E-01  0.958E-02  0.958E-02  0.958E-02
  -2.744  0.308E-01  0.103E-01  0.103E-01  0.103E-01
  -2.734  0.333E-01  0.111E-01  0.111E-01  0.111E-01
  -2.724  0.364E-01  0.121E-01  0.121E-01  0.121E-01
  -2.714  0.401E-01  0.134E-01  0.134E-01  0.134E-01
  -2.704  0.443E-01  0.148E-01  0.148E-01  0.148E-01
  -2.694  0.489E-01  0.163E-01  0.163E-01  0.163E-01
  -2.684  0.540E-01  0.180E-01  0.180E-01  0.180E-01
  -2.674  0.595E-01  0.198E-01  0.198E-01  0.198E-01
  -2.664  0.654E-01  0.218E-01  0.218E-01  0.218E-01
  -2.654  0.715E-01  0.238E-01  0.238E-01  0.238E-01
  -2.644  0.778E-01  0.259E-01  0.259E-01  0.259E-01
  -2.634  0.842E-01  0.281E-01  0.281E-01  0.281E-01
  -2.624  0.906E-01  0.302E-01  0.302E-01  0.302E-01
  -2.614  0.969E-01  0.323E-01  0.323E-01  0.323E-01
  -2.604  0.103E+00  0.343E-01  0.343E-01  0.343E-01
  -2.594  0.109E+00  0.363E-01  0.363E-01  0.363E-01
  -2.584  0.114E+00  0.381E-01  0.381E-01  0.381E-01
  -2.574  0.119E+00  0.397E-01  0.397E-01  0.397E-01
  -2.564  0.123E+00  0.411E-01  0.411E-01  0.411E-01
  -2.554  0.127E+00  0.423E-01  0.423E-01  0.423E-01
  -2.544  0.130E+00  0.433E-01  0.433E-01  0.433E-01
  -2.534  0.132E+00  0.440E-01  0.440E-01  0.440E-01
  -2.524  0.134E+00  0.445E-01  0.445E-01  0.445E-01
  -2.514  0.134E+00  0.448E-01  0.448E-01  0.448E-01
  -2.504  0.134E+00  0.447E-01  0.447E-01  0.447E-01
  -2.494  0.133E+00  0.445E-01  0.445E-01  0.445E-01
  -2.484  0.132E+00  0.440E-01  0.440E-01  0.440E-01
  -2.474  0.130E+00  0.433E-01  0.433E-01  0.433E-01
  -2.464  0.127E+00  0.425E-01  0.425E-01  0.425E-01
  -2.454  0.124E+00  0.415E-01  0.415E-01  0.415E-01
  -2.444  0.121E+00  0.403E-01  0.403E-01  0.403E-01
  -2.434  0.117E+00  0.391E-01  0.391E-01  0.391E-01
  -2.424  0.114E+00  0.379E-01  0.379E-01  0.379E-01
  -2.414  0.110E+00  0.365E-01  0.365E-01  0.365E-01
  -2.404  0.106E+00  0.352E-01  0.352E-01  0.352E-01
  -2.394  0.102E+00  0.339E-01  0.339E-01  0.339E-01
  -2.384  0.979E-01  0.326E-01  0.326E-01  0.326E-01
  -2.374  0.943E-01  0.314E-01  0.314E-01  0.314E-01
  -2.364  0.908E-01  0.303E-01  0.303E-01  0.303E-01
  -2.354  0.876E-01  0.292E-01  0.292E-01  0.292E-01
  -2.344  0.847E-01  0.282E-01  0.282E-01  0.282E-01
  -2.334  0.821E-01  0.274E-01  0.274E-01  0.274E-01
  -2.324  0.797E-01  0.266E-01  0.266E-01  0.266E-01
  -2.314  0.777E-01  0.259E-01  0.259E-01  0.259E-01
  -2.304  0.760E-01  0.253E-01  0.253E-01  0.253E-01
  -2.294  0.746E-01  0.249E-01  0.249E-01  0.249E-01
  -2.284  0.734E-01  0.245E-01  0.245E-01  0.245E-01
  -2.274  0.726E-01  0.242E-01  0.242E-01  0.242E-01
  -2.264  0.720E-01  0.240E-01  0.240E-01  0.240E-01
  -2.254  0.716E-01  0.239E-01  0.239E-01  0.239E-01
  -2.244  0.714E-01  0.238E-01  0.238E-01  0.238E-01
  -2.234  0.714E-01  0.238E-01  0.238E-01  0.238E-01
  -2.224  0.715E-01  0.238E-01  0.238E-01  0.238E-01
  -2.214  0.717E-01  0.239E-01  0.239E-01  0.239E-01
  -2.204  0.720E-01  0.240E-01  0.240E-01  0.240E-01
  -2.194  0.724E-01  0.241E-01  0.241E-01  0.241E-01
  -2.184  0.727E-01  0.242E-01  0.242E-01  0.242E-01
  -2.174  0.730E-01  0.243E-01  0.243E-01  0.243E-01
  -2.164  0.733E-01  0.244E-01  0.244E-01  0.244E-01
  -2.154  0.736E-01  0.245E-01  0.245E-01  0.245E-01
  -2.144  0.737E-01  0.246E-01  0.246E-01  0.246E-01
  -2.134  0.738E-01  0.246E-01  0.246E-01  0.246E-01
  -2.124  0.738E-01  0.246E-01  0.246E-01  0.246E-01
  -2.114  0.737E-01  0.246E-01  0.246E-01  0.246E-01
  -2.104  0.736E-01  0.245E-01  0.245E-01  0.245E-01
  -2.094  0.734E-01  0.245E-01  0.245E-01  0.245E-01
  -2.084  0.732E-01  0.244E-01  0.244E-01  0.244E-01
  -2.074  0.730E-01  0.243E-01  0.243E-01  0.243E-01
  -2.064  0.728E-01  0.243E-01  0.243E-01  0.243E-01
  -2.054  0.727E-01  0.242E-01  0.242E-01  0.242E-01
  -2.044  0.726E-01  0.242E-01  0.242E-01  0.242E-01
  -2.034  0.725E-01  0.242E-01  0.242E-01  0.242E-01
  -2.024  0.726E-01  0.242E-01  0.242E-01  0.242E-01
  -2.014  0.727E-01  0.242E-01  0.242E-01  0.242E-01
  -2.004  0.728E-01  0.243E-01  0.243E-01  0.243E-01
  -1.994  0.730E-01  0.243E-01  0.243E-01  0.243E-01
  -1.984  0.732E-01  0.244E-01  0.244E-01  0.244E-01
  -1.974  0.734E-01  0.245E-01  0.245E-01  0.245E-01
  -1.964  0.736E-01  0.245E-01  0.245E-01  0.245E-01
  -1.954  0.738E-01  0.246E-01  0.246E-01  0.246E-01
  -1.944  0.739E-01  0.246E-01  0.246E-01  0.246E-01
  -1.934  0.739E-01  0.246E-01  0.246E-01  0.246E-01
  -1.924  0.739E-01  0.246E-01  0.246E-01  0.246E-01
  -1.914  0.737E-01  0.246E-01  0.246E-01  0.246E-01
  -1.904  0.735E-01  0.245E-01  0.245E-01  0.245E-01
  -1.894  0.733E-01  0.244E-01  0.244E-01  0.244E-01
  -1.884  0.729E-01  0.243E-01  0.243E-01  0.243E-01
  -1.874  0.726E-01  0.242E-01  0.242E-01  0.242E-01
  -1.864  0.721E-01  0.240E-01  0.240E-01  0.240E-01
  -1.854  0.716E-01  0.239E-01  0.239E-01  0.239E-01
  -1.844  0.711E-01  0.237E-01  0.237E-01  0.237E-01
  -1.834  0.706E-01  0.235E-01  0.235E-01  0.235E-01
  -1.824  0.701E-01  0.234E-01  0.234E-01  0.234E-01
  -1.814  0.695E-01  0.232E-01  0.232E-01  0.232E-01
  -1.804  0.689E-01  0.230E-01  0.230E-01  0.230E-01
  -1.794  0.683E-01  0.228E-01  0.228E-01  0.228E-01
  -1.784  0.676E-01  0.225E-01  0.225E-01  0.225E-01
  -1.774  0.669E-01  0.223E-01  0.223E-01  0.223E-01
  -1.764  0.662E-01  0.221E-01  0.221E-01  0.221E-01
  -1.754  0.655E-01  0.218E-01  0.218E-01  0.218E-01
  -1.744  0.647E-01  0.216E-01  0.216E-01  0.216E-01
  -1.734  0.638E-01  0.213E-01  0.213E-01  0.213E-01
  -1.724  0.629E-01  0.210E-01  0.210E-01  0.210E-01
  -1.714  0.620E-01  0.207E-01  0.207E-01  0.207E-01
  -1.704  0.611E-01  0.204E-01  0.204E-01  0.204E-01
  -1.694  0.602E-01  0.201E-01  0.201E-01  0.201E-01
  -1.684  0.593E-01  0.198E-01  0.198E-01  0.198E-01
  -1.674  0.584E-01  0.195E-01  0.195E-01  0.195E-01
  -1.664  0.576E-01  0.192E-01  0.192E-01  0.192E-01
  -1.654  0.569E-01  0.190E-01  0.190E-01  0.190E-01
  -1.644  0.562E-01  0.187E-01  0.187E-01  0.187E-01
  -1.634  0.556E-01  0.185E-01  0.185E-01  0.185E-01
  -1.624  0.552E-01  0.184E-01  0.184E-01  0.184E-01
  -1.614  0.549E-01  0.183E-01  0.183E-01  0.183E-01
  -1.604  0.547E-01  0.182E-01  0.182E-01  0.182E-01
  -1.594  0.547E-01  0.182E-01  0.182E-01  0.182E-01
  -1.584  0.549E-01  0.183E-01  0.183E-01  0.183E-01
  -1.574  0.554E-01  0.185E-01  0.185E-01  0.185E-01
  -1.564  0.560E-01  0.187E-01  0.187E-01  0.187E-01
  -1.554  0.568E-01  0.189E-01  0.189E-01  0.189E-01
  -1.544  0.579E-01  0.193E-01  0.193E-01  0.193E-01
  -1.534  0.593E-01  0.198E-01  0.198E-01  0.198E-01
  -1.524  0.608E-01  0.203E-01  0.203E-01  0.203E-01
  -1.514  0.626E-01  0.209E-01  0.209E-01  0.209E-01
  -1.504  0.646E-01  0.215E-01  0.215E-01  0.215E-01
  -1.494  0.668E-01  0.223E-01  0.223E-01  0.223E-01
  -1.484  0.690E-01  0.230E-01  0.230E-01  0.230E-01
  -1.474  0.713E-01  0.238E-01  0.238E-01  0.238E-01
  -1.464  0.737E-01  0.246E-01  0.246E-01  0.246E-01
  -1.454  0.760E-01  0.253E-01  0.253E-01  0.253E-01
  -1.444  0.782E-01  0.261E-01  0.261E-01  0.261E-01
  -1.434  0.803E-01  0.268E-01  0.268E-01  0.268E-01
  -1.424  0.822E-01  0.274E-01  0.274E-01  0.274E-01
  -1.414  0.838E-01  0.279E-01  0.279E-01  0.279E-01
  -1.404  0.851E-01  0.284E-01  0.284E-01  0.284E-01
  -1.394  0.861E-01  0.287E-01  0.287E-01  0.287E-01
  -1.384  0.869E-01  0.290E-01  0.290E-01  0.290E-01
  -1.374  0.874E-01  0.291E-01  0.291E-01  0.291E-01
  -1.364  0.877E-01  0.292E-01  0.292E-01  0.292E-01
  -1.354  0.879E-01  0.293E-01  0.293E-01  0.293E-01
  -1.344  0.879E-01  0.293E-01  0.293E-01  0.293E-01
  -1.334  0.880E-01  0.293E-01  0.293E-01  0.293E-01
  -1.324  0.882E-01  0.294E-01  0.294E-01  0.294E-01
  -1.314  0.887E-01  0.296E-01  0.296E-01  0.296E-01
  -1.304  0.894E-01  0.298E-01  0.298E-01  0.298E-01
  -1.294  0.906E-01  0.302E-01  0.302E-01  0.302E-01
  -1.284  0.922E-01  0.307E-01  0.307E-01  0.307E-01
  -1.274  0.943E-01  0.314E-01  0.314E-01  0.314E-01
  -1.264  0.969E-01  0.323E-01  0.323E-01  0.323E-01
  -1.254  0.100E+00  0.334E-01  0.334E-01  0.334E-01
  -1.244  0.104E+00  0.346E-01  0.346E-01  0.346E-01
  -1.234  0.108E+00  0.359E-01  0.359E-01  0.359E-01
  -1.224  0.112E+00  0.374E-01  0.374E-01  0.374E-01
  -1.214  0.117E+00  0.389E-01  0.389E-01  0.389E-01
  -1.204  0.121E+00  0.404E-01  0.404E-01  0.404E-01
  -1.194  0.126E+00  0.419E-01  0.419E-01  0.419E-01
  -1.184  0.130E+00  0.433E-01  0.433E-01  0.433E-01
  -1.174  0.134E+00  0.446E-01  0.446E-01  0.446E-01
  -1.164  0.137E+00  0.458E-01  0.458E-01  0.458E-01
  -1.154  0.140E+00  0.468E-01  0.468E-01  0.468E-01
  -1.144  0.142E+00  0.475E-01  0.475E-01  0.475E-01
  -1.134  0.144E+00  0.480E-01  0.480E-01  0.480E-01
  -1.124  0.145E+00  0.483E-01  0.483E-01  0.483E-01
  -1.114  0.145E+00  0.483E-01  0.483E-01  0.483E-01
  -1.104  0.144E+00  0.481E-01  0.481E-01  0.481E-01
  -1.094  0.143E+00  0.478E-01  0.478E-01  0.478E-01
  -1.084  0.142E+00  0.473E-01  0.473E-01  0.473E-01
  -1.074  0.140E+00  0.467E-01  0.467E-01  0.467E-01
  -1.064  0.138E+00  0.460E-01  0.460E-01  0.460E-01
  -1.054  0.136E+00  0.454E-01  0.454E-01  0.454E-01
  -1.044  0.134E+00  0.447E-01  0.447E-01  0.447E-01
  -1.034  0.133E+00  0.442E-01  0.442E-01  0.442E-01
  -1.024  0.132E+00  0.439E-01  0.439E-01  0.439E-01
  -1.014  0.131E+00  0.437E-01  0.437E-01  0.437E-01
  -1.004  0.131E+00  0.438E-01  0.438E-01  0.438E-01
  -0.994  0.133E+00  0.442E-01  0.442E-01  0.442E-01
  -0.984  0.135E+00  0.449E-01  0.449E-01  0.449E-01
  -0.974  0.138E+00  0.460E-01  0.460E-01  0.460E-01
  -0.964  0.142E+00  0.474E-01  0.474E-01  0.474E-01
  -0.954  0.148E+00  0.493E-01  0.493E-01  0.493E-01
  -0.944  0.155E+00  0.515E-01  0.515E-01  0.515E-01
  -0.934  0.163E+00  0.542E-01  0.542E-01  0.542E-01
  -0.924  0.172E+00  0.573E-01  0.573E-01  0.573E-01
  -0.914  0.182E+00  0.608E-01  0.608E-01  0.608E-01
  -0.904  0.194E+00  0.646E-01  0.646E-01  0.646E-01
  -0.894  0.206E+00  0.688E-01  0.688E-01  0.688E-01
  -0.884  0.220E+00  0.732E-01  0.732E-01  0.732E-01
  -0.874  0.234E+00  0.778E-01  0.778E-01  0.778E-01
  -0.864  0.248E+00  0.826E-01  0.826E-01  0.826E-01
  -0.854  0.262E+00  0.874E-01  0.874E-01  0.874E-01
  -0.844  0.277E+00  0.922E-01  0.922E-01  0.922E-01
  -0.834  0.290E+00  0.968E-01  0.968E-01  0.968E-01
  -0.824  0.304E+00  0.101E+00  0.101E+00  0.101E+00
  -0.814  0.316E+00  0.105E+00  0.105E+00  0.105E+00
  -0.804  0.327E+00  0.109E+00  0.109E+00  0.109E+00
  -0.794  0.337E+00  0.112E+00  0.112E+00  0.112E+00
  -0.784  0.345E+00  0.115E+00  0.115E+00  0.115E+00
  -0.774  0.352E+00  0.117E+00  0.117E+00  0.117E+00
  -0.764  0.357E+00  0.119E+00  0.119E+00  0.119E+00
  -0.754  0.360E+00  0.120E+00  0.120E+00  0.120E+00
  -0.744  0.362E+00  0.121E+00  0.121E+00  0.121E+00
  -0.734  0.362E+00  0.121E+00  0.121E+00  0.121E+00
  -0.724  0.361E+00  0.120E+00  0.120E+00  0.120E+00
  -0.714  0.358E+00  0.119E+00  0.119E+00  0.119E+00
  -0.704  0.354E+00  0.118E+00  0.118E+00  0.118E+00
  -0.694  0.349E+00  0.116E+00  0.116E+00  0.116E+00
  -0.684  0.343E+00  0.114E+00  0.114E+00  0.114E+00
  -0.674  0.337E+00  0.112E+00  0.112E+00  0.112E+00
  -0.664  0.329E+00  0.110E+00  0.110E+00  0.110E+00
  -0.654  0.322E+00  0.107E+00  0.107E+00  0.107E+00
  -0.644  0.313E+00  0.104E+00  0.104E+00  0.104E+00
  -0.634  0.305E+00  0.102E+00  0.102E+00  0.102E+00
  -0.624  0.296E+00  0.985E-01  0.985E-01  0.985E-01
  -0.614  0.286E+00  0.954E-01  0.954E-01  0.954E-01
  -0.604  0.276E+00  0.921E-01  0.921E-01  0.921E-01
  -0.594  0.266E+00  0.887E-01  0.887E-01  0.887E-01
  -0.584  0.256E+00  0.852E-01  0.852E-01  0.852E-01
  -0.574  0.245E+00  0.816E-01  0.816E-01  0.816E-01
  -0.564  0.234E+00  0.780E-01  0.780E-01  0.780E-01
  -0.554  0.223E+00  0.743E-01  0.743E-01  0.743E-01
  -0.544  0.212E+00  0.706E-01  0.706E-01  0.706E-01
  -0.534  0.201E+00  0.669E-01  0.669E-01  0.669E-01
  -0.524  0.190E+00  0.634E-01  0.634E-01  0.634E-01
  -0.514  0.180E+00  0.599E-01  0.599E-01  0.599E-01
  -0.504  0.170E+00  0.567E-01  0.567E-01  0.567E-01
  -0.494  0.161E+00  0.536E-01  0.536E-01  0.536E-01
  -0.484  0.153E+00  0.509E-01  0.509E-01  0.509E-01
  -0.474  0.146E+00  0.485E-01  0.485E-01  0.485E-01
  -0.464  0.140E+00  0.465E-01  0.465E-01  0.465E-01
  -0.454  0.135E+00  0.450E-01  0.450E-01  0.450E-01
  -0.444  0.132E+00  0.438E-01  0.438E-01  0.438E-01
  -0.434  0.130E+00  0.432E-01  0.432E-01  0.432E-01
  -0.424  0.129E+00  0.431E-01  0.431E-01  0.431E-01
  -0.414  0.130E+00  0.434E-01  0.434E-01  0.434E-01
  -0.404  0.133E+00  0.443E-01  0.443E-01  0.443E-01
  -0.394  0.137E+00  0.457E-01  0.457E-01  0.457E-01
  -0.384  0.143E+00  0.477E-01  0.477E-01  0.477E-01
  -0.374  0.151E+00  0.502E-01  0.502E-01  0.502E-01
  -0.364  0.160E+00  0.533E-01  0.533E-01  0.533E-01
  -0.354  0.171E+00  0.570E-01  0.570E-01  0.570E-01
  -0.344  0.184E+00  0.612E-01  0.612E-01  0.612E-01
  -0.334  0.198E+00  0.660E-01  0.660E-01  0.660E-01
  -0.324  0.214E+00  0.714E-01  0.714E-01  0.714E-01
  -0.314  0.232E+00  0.774E-01  0.774E-01  0.774E-01
  -0.304  0.252E+00  0.840E-01  0.840E-01  0.840E-01
  -0.294  0.273E+00  0.910E-01  0.910E-01  0.910E-01
  -0.284  0.296E+00  0.986E-01  0.986E-01  0.986E-01
  -0.274  0.320E+00  0.107E+00  0.107E+00  0.107E+00
  -0.264  0.345E+00  0.115E+00  0.115E+00  0.115E+00
  -0.254  0.370E+00  0.123E+00  0.123E+00  0.123E+00
  -0.244  0.396E+00  0.132E+00  0.132E+00  0.132E+00
  -0.234  0.423E+00  0.141E+00  0.141E+00  0.141E+00
  -0.224  0.449E+00  0.150E+00  0.150E+00  0.150E+00
  -0.214  0.474E+00  0.158E+00  0.158E+00  0.158E+00
  -0.204  0.499E+00  0.166E+00  0.166E+00  0.166E+00
  -0.194  0.522E+00  0.174E+00  0.174E+00  0.174E+00
  -0.184  0.544E+00  0.181E+00  0.181E+00  0.181E+00
  -0.174  0.563E+00  0.188E+00  0.188E+00  0.188E+00
  -0.164  0.581E+00  0.194E+00  0.194E+00  0.194E+00
  -0.154  0.596E+00  0.199E+00  0.199E+00  0.199E+00
  -0.144  0.609E+00  0.203E+00  0.203E+00  0.203E+00
  -0.134  0.619E+00  0.206E+00  0.206E+00  0.206E+00
  -0.124  0.627E+00  0.209E+00  0.209E+00  0.209E+00
  -0.114  0.632E+00  0.211E+00  0.211E+00  0.211E+00
  -0.104  0.635E+00  0.212E+00  0.212E+00  0.212E+00
  -0.094  0.636E+00  0.212E+00  0.212E+00  0.212E+00
  -0.084  0.636E+00  0.212E+00  0.212E+00  0.212E+00
  -0.074  0.633E+00  0.211E+00  0.211E+00  0.211E+00
  -0.064  0.630E+00  0.210E+00  0.210E+00  0.210E+00
  -0.054  0.625E+00  0.208E+00  0.208E+00  0.208E+00
  -0.044  0.620E+00  0.207E+00  0.207E+00  0.207E+00
  -0.034  0.614E+00  0.205E+00  0.205E+00  0.205E+00
  -0.024  0.607E+00  0.202E+00  0.202E+00  0.202E+00
  -0.014  0.600E+00  0.200E+00  0.200E+00  0.200E+00
  -0.004  0.593E+00  0.198E+00  0.198E+00  0.198E+00
   0.006  0.586E+00  0.195E+00  0.195E+00  0.195E+00
   0.016  0.579E+00  0.193E+00  0.193E+00  0.193E+00
   0.026  0.571E+00  0.190E+00  0.190E+00  0.190E+00
   0.036  0.563E+00  0.188E+00  0.188E+00  0.188E+00
   0.046  0.554E+00  0.185E+00  0.185E+00  0.185E+00
   0.056  0.545E+00  0.182E+00  0.182E+00  0.182E+00
   0.066  0.535E+00  0.178E+00  0.178E+00  0.178E+00
   0.076  0.525E+00  0.175E+00  0.175E+00  0.175E+00
   0.086  0.513E+00  0.171E+00  0.171E+00  0.171E+00
   0.096  0.500E+00  0.167E+00  0.167E+00  0.167E+00
   0.106  0.485E+00  0.162E+00  0.162E+00  0.162E+00
   0.116  0.469E+00  0.156E+00  0.156E+00  0.156E+00
   0.126  0.452E+00  0.151E+00  0.151E+00  0.151E+00
   0.136  0.433E+00  0.144E+00  0.144E+00  0.144E+00
   0.146  0.414E+00  0.138E+00  0.138E+00  0.138E+00
   0.156  0.392E+00  0.131E+00  0.131E+00  0.131E+00
   0.166  0.370E+00  0.123E+00  0.123E+00  0.123E+00
   0.176  0.347E+00  0.116E+00  0.116E+00  0.116E+00
   0.186  0.324E+00  0.108E+00  0.108E+00  0.108E+00
   0.196  0.301E+00  0.100E+00  0.100E+00  0.100E+00
   0.206  0.277E+00  0.925E-01  0.925E-01  0.925E-01
   0.216  0.255E+00  0.849E-01  0.849E-01  0.849E-01
   0.226  0.233E+00  0.776E-01  0.776E-01  0.776E-01
   0.236  0.212E+00  0.706E-01  0.706E-01  0.706E-01
   0.246  0.192E+00  0.641E-01  0.641E-01  0.641E-01
   0.256  0.174E+00  0.581E-01  0.581E-01  0.581E-01
   0.266  0.158E+00  0.526E-01  0.526E-01  0.526E-01
   0.276  0.143E+00  0.478E-01  0.478E-01  0.478E-01
   0.286  0.131E+00  0.436E-01  0.436E-01  0.436E-01
   0.296  0.120E+00  0.399E-01  0.399E-01  0.399E-01
   0.306  0.110E+00  0.368E-01  0.368E-01  0.368E-01
   0.316  0.103E+00  0.343E-01  0.343E-01  0.343E-01
   0.326  0.966E-01  0.322E-01  0.322E-01  0.322E-01
   0.336  0.917E-01  0.306E-01  0.306E-01  0.306E-01
   0.346  0.878E-01  0.293E-01  0.293E-01  0.293E-01
   0.356  0.848E-01  0.283E-01  0.283E-01  0.283E-01
   0.366  0.825E-01  0.275E-01  0.275E-01  0.275E-01
   0.376  0.806E-01  0.269E-01  0.269E-01  0.269E-01
   0.386  0.790E-01  0.263E-01  0.263E-01  0.263E-01
   0.396  0.776E-01  0.259E-01  0.259E-01  0.259E-01
   0.406  0.762E-01  0.254E-01  0.254E-01  0.254E-01
   0.416  0.747E-01  0.249E-01  0.249E-01  0.249E-01
   0.426  0.730E-01  0.243E-01  0.243E-01  0.243E-01
   0.436  0.711E-01  0.237E-01  0.237E-01  0.237E-01
   0.446  0.690E-01  0.230E-01  0.230E-01  0.230E-01
   0.456  0.667E-01  0.222E-01  0.222E-01  0.222E-01
   0.466  0.641E-01  0.214E-01  0.214E-01  0.214E-01
   0.476  0.613E-01  0.204E-01  0.204E-01  0.204E-01
   0.486  0.584E-01  0.195E-01  0.195E-01  0.195E-01
   0.496  0.554E-01  0.185E-01  0.185E-01  0.185E-01
   0.506  0.523E-01  0.174E-01  0.174E-01  0.174E-01
   0.516  0.492E-01  0.164E-01  0.164E-01  0.164E-01
   0.526  0.462E-01  0.154E-01  0.154E-01  0.154E-01
   0.536  0.433E-01  0.144E-01  0.144E-01  0.144E-01
   0.546  0.405E-01  0.135E-01  0.135E-01  0.135E-01
   0.556  0.379E-01  0.126E-01  0.126E-01  0.126E-01
   0.566  0.356E-01  0.119E-01  0.119E-01  0.119E-01
   0.576  0.335E-01  0.112E-01  0.112E-01  0.112E-01
   0.586  0.317E-01  0.106E-01  0.106E-01  0.106E-01
   0.596  0.302E-01  0.101E-01  0.101E-01  0.101E-01
   0.606  0.290E-01  0.966E-02  0.966E-02  0.966E-02
   0.616  0.281E-01  0.936E-02  0.936E-02  0.936E-02
   0.626  0.275E-01  0.915E-02  0.915E-02  0.915E-02
   0.636  0.271E-01  0.903E-02  0.903E-02  0.903E-02
   0.646  0.270E-01  0.899E-02  0.899E-02  0.899E-02
   0.656  0.270E-01  0.901E-02  0.901E-02  0.901E-02
   0.666  0.273E-01  0.909E-02  0.909E-02  0.909E-02
   0.676  0.276E-01  0.920E-02  0.920E-02  0.920E-02
   0.686  0.280E-01  0.933E-02  0.933E-02  0.933E-02
   0.696  0.284E-01  0.948E-02  0.948E-02  0.948E-02
   0.706  0.289E-01  0.962E-02  0.962E-02  0.962E-02
   0.716  0.293E-01  0.976E-02  0.976E-02  0.976E-02
   0.726  0.296E-01  0.987E-02  0.987E-02  0.987E-02
   0.736  0.299E-01  0.997E-02  0.997E-02  0.997E-02
   0.746  0.301E-01  0.100E-01  0.100E-01  0.100E-01
   0.756  0.303E-01  0.101E-01  0.101E-01  0.101E-01
   0.766  0.304E-01  0.101E-01  0.101E-01  0.101E-01
   0.776  0.305E-01  0.102E-01  0.102E-01  0.102E-01
   0.786  0.306E-01  0.102E-01  0.102E-01  0.102E-01
   0.796  0.307E-01  0.102E-01  0.102E-01  0.102E-01
   0.806  0.308E-01  0.103E-01  0.103E-01  0.103E-01
   0.816  0.310E-01  0.103E-01  0.103E-01  0.103E-01
   0.826  0.314E-01  0.105E-01  0.105E-01  0.105E-01
   0.836  0.318E-01  0.106E-01  0.106E-01  0.106E-01
   0.846  0.323E-01  0.108E-01  0.108E-01  0.108E-01
   0.856  0.329E-01  0.110E-01  0.110E-01  0.110E-01
   0.866  0.336E-01  0.112E-01  0.112E-01  0.112E-01
   0.876  0.343E-01  0.114E-01  0.114E-01  0.114E-01
   0.886  0.351E-01  0.117E-01  0.117E-01  0.117E-01
   0.896  0.360E-01  0.120E-01  0.120E-01  0.120E-01
   0.906  0.368E-01  0.123E-01  0.123E-01  0.123E-01
   0.916  0.375E-01  0.125E-01  0.125E-01  0.125E-01
   0.926  0.382E-01  0.127E-01  0.127E-01  0.127E-01
   0.936  0.388E-01  0.129E-01  0.129E-01  0.129E-01
   0.946  0.394E-01  0.131E-01  0.131E-01  0.131E-01
   0.956  0.398E-01  0.133E-01  0.133E-01  0.133E-01
   0.966  0.402E-01  0.134E-01  0.134E-01  0.134E-01
   0.976  0.406E-01  0.135E-01  0.135E-01  0.135E-01
   0.986  0.409E-01  0.136E-01  0.136E-01  0.136E-01
   0.996  0.412E-01  0.137E-01  0.137E-01  0.137E-01
   1.006  0.415E-01  0.138E-01  0.138E-01  0.138E-01
   1.016  0.419E-01  0.140E-01  0.140E-01  0.140E-01
   1.026  0.424E-01  0.141E-01  0.141E-01  0.141E-01
   1.036  0.429E-01  0.143E-01  0.143E-01  0.143E-01
   1.046  0.436E-01  0.145E-01  0.145E-01  0.145E-01
   1.056  0.443E-01  0.148E-01  0.148E-01  0.148E-01
   1.066  0.452E-01  0.151E-01  0.151E-01  0.151E-01
   1.076  0.460E-01  0.153E-01  0.153E-01  0.153E-01
   1.086  0.469E-01  0.156E-01  0.156E-01  0.156E-01
   1.096  0.478E-01  0.159E-01  0.159E-01  0.159E-01
   1.106  0.486E-01  0.162E-01  0.162E-01  0.162E-01
   1.116  0.492E-01  0.164E-01  0.164E-01  0.164E-01
   1.126  0.497E-01  0.166E-01  0.166E-01  0.166E-01
   1.136  0.499E-01  0.166E-01  0.166E-01  0.166E-01
   1.146  0.499E-01  0.166E-01  0.166E-01  0.166E-01
   1.156  0.495E-01  0.165E-01  0.165E-01  0.165E-01
   1.166  0.488E-01  0.163E-01  0.163E-01  0.163E-01
   1.176  0.477E-01  0.159E-01  0.159E-01  0.159E-01
   1.186  0.463E-01  0.154E-01  0.154E-01  0.154E-01
   1.196  0.446E-01  0.149E-01  0.149E-01  0.149E-01
   1.206  0.426E-01  0.142E-01  0.142E-01  0.142E-01
   1.216  0.403E-01  0.134E-01  0.134E-01  0.134E-01
   1.226  0.379E-01  0.126E-01  0.126E-01  0.126E-01
   1.236  0.352E-01  0.117E-01  0.117E-01  0.117E-01
   1.246  0.325E-01  0.108E-01  0.108E-01  0.108E-01
   1.256  0.297E-01  0.990E-02  0.990E-02  0.990E-02
   1.266  0.269E-01  0.898E-02  0.898E-02  0.898E-02
   1.276  0.242E-01  0.808E-02  0.808E-02  0.808E-02
   1.286  0.217E-01  0.723E-02  0.723E-02  0.723E-02
   1.296  0.193E-01  0.644E-02  0.644E-02  0.644E-02
   1.306  0.171E-01  0.572E-02  0.572E-02  0.572E-02
   1.316  0.153E-01  0.508E-02  0.508E-02  0.508E-02
   1.326  0.136E-01  0.455E-02  0.455E-02  0.455E-02
   1.336  0.124E-01  0.412E-02  0.412E-02  0.412E-02
   1.346  0.114E-01  0.381E-02  0.381E-02  0.381E-02
   1.356  0.109E-01  0.362E-02  0.362E-02  0.362E-02
   1.366  0.107E-01  0.355E-02  0.355E-02  0.355E-02
   1.376  0.109E-01  0.362E-02  0.362E-02  0.362E-02
   1.386  0.115E-01  0.382E-02  0.382E-02  0.382E-02
   1.396  0.125E-01  0.415E-02  0.415E-02  0.415E-02
   1.406  0.139E-01  0.462E-02  0.462E-02  0.462E-02
   1.416  0.156E-01  0.521E-02  0.521E-02  0.521E-02
   1.426  0.178E-01  0.594E-02  0.594E-02  0.594E-02
   1.436  0.203E-01  0.678E-02  0.678E-02  0.678E-02
   1.446  0.232E-01  0.773E-02  0.773E-02  0.773E-02
   1.456  0.263E-01  0.877E-02  0.877E-02  0.877E-02
   1.466  0.297E-01  0.989E-02  0.989E-02  0.989E-02
   1.476  0.332E-01  0.111E-01  0.111E-01  0.111E-01
   1.486  0.368E-01  0.123E-01  0.123E-01  0.123E-01
   1.496  0.404E-01  0.135E-01  0.135E-01  0.135E-01
   1.506  0.439E-01  0.146E-01  0.146E-01  0.146E-01
   1.516  0.472E-01  0.157E-01  0.157E-01  0.157E-01
   1.526  0.502E-01  0.167E-01  0.167E-01  0.167E-01
   1.536  0.529E-01  0.176E-01  0.176E-01  0.176E-01
   1.546  0.552E-01  0.184E-01  0.184E-01  0.184E-01
   1.556  0.569E-01  0.190E-01  0.190E-01  0.190E-01
   1.566  0.581E-01  0.194E-01  0.194E-01  0.194E-01
   1.576  0.587E-01  0.196E-01  0.196E-01  0.196E-01
   1.586  0.586E-01  0.195E-01  0.195E-01  0.195E-01
   1.596  0.580E-01  0.193E-01  0.193E-01  0.193E-01
   1.606  0.567E-01  0.189E-01  0.189E-01  0.189E-01
   1.616  0.550E-01  0.183E-01  0.183E-01  0.183E-01
   1.626  0.528E-01  0.176E-01  0.176E-01  0.176E-01
   1.636  0.502E-01  0.167E-01  0.167E-01  0.167E-01
   1.646  0.473E-01  0.158E-01  0.158E-01  0.158E-01
   1.656  0.442E-01  0.147E-01  0.147E-01  0.147E-01
   1.666  0.410E-01  0.137E-01  0.137E-01  0.137E-01
   1.676  0.377E-01  0.126E-01  0.126E-01  0.126E-01
   1.686  0.346E-01  0.115E-01  0.115E-01  0.115E-01
   1.696  0.317E-01  0.106E-01  0.106E-01  0.106E-01
   1.706  0.290E-01  0.966E-02  0.966E-02  0.966E-02
   1.716  0.266E-01  0.887E-02  0.887E-02  0.887E-02
   1.726  0.246E-01  0.818E-02  0.818E-02  0.818E-02
   1.736  0.229E-01  0.763E-02  0.763E-02  0.763E-02
   1.746  0.216E-01  0.721E-02  0.721E-02  0.721E-02
   1.756  0.207E-01  0.691E-02  0.691E-02  0.691E-02
   1.766  0.202E-01  0.674E-02  0.674E-02  0.674E-02
   1.776  0.201E-01  0.669E-02  0.669E-02  0.669E-02
   1.786  0.202E-01  0.675E-02  0.675E-02  0.675E-02
   1.796  0.207E-01  0.689E-02  0.689E-02  0.689E-02
   1.806  0.213E-01  0.711E-02  0.711E-02  0.711E-02
   1.816  0.222E-01  0.739E-02  0.739E-02  0.739E-02
   1.826  0.231E-01  0.772E-02  0.772E-02  0.772E-02
   1.836  0.242E-01  0.806E-02  0.806E-02  0.806E-02
   1.846  0.253E-01  0.843E-02  0.843E-02  0.843E-02
   1.856  0.264E-01  0.879E-02  0.879E-02  0.879E-02
   1.866  0.274E-01  0.914E-02  0.914E-02  0.914E-02
   1.876  0.284E-01  0.947E-02  0.947E-02  0.947E-02
   1.886  0.293E-01  0.978E-02  0.978E-02  0.978E-02
   1.896  0.302E-01  0.101E-01  0.101E-01  0.101E-01
   1.906  0.309E-01  0.103E-01  0.103E-01  0.103E-01
   1.916  0.316E-01  0.105E-01  0.105E-01  0.105E-01
   1.926  0.323E-01  0.108E-01  0.108E-01  0.108E-01
   1.936  0.328E-01  0.109E-01  0.109E-01  0.109E-01
   1.946  0.333E-01  0.111E-01  0.111E-01  0.111E-01
   1.956  0.338E-01  0.113E-01  0.113E-01  0.113E-01
   1.966  0.343E-01  0.114E-01  0.114E-01  0.114E-01
   1.976  0.347E-01  0.116E-01  0.116E-01  0.116E-01
   1.986  0.351E-01  0.117E-01  0.117E-01  0.117E-01
   1.996  0.356E-01  0.119E-01  0.119E-01  0.119E-01
   2.006  0.360E-01  0.120E-01  0.120E-01  0.120E-01
   2.016  0.365E-01  0.122E-01  0.122E-01  0.122E-01
   2.026  0.370E-01  0.123E-01  0.123E-01  0.123E-01
   2.036  0.376E-01  0.125E-01  0.125E-01  0.125E-01
   2.046  0.383E-01  0.128E-01  0.128E-01  0.128E-01
   2.056  0.391E-01  0.130E-01  0.130E-01  0.130E-01
   2.066  0.401E-01  0.134E-01  0.134E-01  0.134E-01
   2.076  0.415E-01  0.138E-01  0.138E-01  0.138E-01
   2.086  0.432E-01  0.144E-01  0.144E-01  0.144E-01
   2.096  0.454E-01  0.151E-01  0.151E-01  0.151E-01
   2.106  0.483E-01  0.161E-01  0.161E-01  0.161E-01
   2.116  0.519E-01  0.173E-01  0.173E-01  0.173E-01
   2.126  0.564E-01  0.188E-01  0.188E-01  0.188E-01
   2.136  0.620E-01  0.207E-01  0.207E-01  0.207E-01
   2.146  0.687E-01  0.229E-01  0.229E-01  0.229E-01
   2.156  0.768E-01  0.256E-01  0.256E-01  0.256E-01
   2.166  0.864E-01  0.288E-01  0.288E-01  0.288E-01
   2.176  0.975E-01  0.325E-01  0.325E-01  0.325E-01
   2.186  0.110E+00  0.368E-01  0.368E-01  0.368E-01
   2.196  0.125E+00  0.416E-01  0.416E-01  0.416E-01
   2.206  0.141E+00  0.470E-01  0.470E-01  0.470E-01
   2.216  0.159E+00  0.530E-01  0.530E-01  0.530E-01
   2.226  0.179E+00  0.596E-01  0.596E-01  0.596E-01
   2.236  0.200E+00  0.667E-01  0.667E-01  0.667E-01
   2.246  0.223E+00  0.743E-01  0.743E-01  0.743E-01
   2.256  0.247E+00  0.824E-01  0.824E-01  0.824E-01
   2.266  0.273E+00  0.909E-01  0.909E-01  0.909E-01
   2.276  0.299E+00  0.996E-01  0.996E-01  0.996E-01
   2.286  0.326E+00  0.109E+00  0.109E+00  0.109E+00
   2.296  0.353E+00  0.118E+00  0.118E+00  0.118E+00
   2.306  0.380E+00  0.127E+00  0.127E+00  0.127E+00
   2.316  0.407E+00  0.136E+00  0.136E+00  0.136E+00
   2.326  0.433E+00  0.144E+00  0.144E+00  0.144E+00
   2.336  0.458E+00  0.153E+00  0.153E+00  0.153E+00
   2.346  0.482E+00  0.161E+00  0.161E+00  0.161E+00
   2.356  0.504E+00  0.168E+00  0.168E+00  0.168E+00
   2.366  0.523E+00  0.174E+00  0.174E+00  0.174E+00
   2.376  0.541E+00  0.180E+00  0.180E+00  0.180E+00
   2.386  0.556E+00  0.185E+00  0.185E+00  0.185E+00
   2.396  0.569E+00  0.190E+00  0.190E+00  0.190E+00
   2.406  0.579E+00  0.193E+00  0.193E+00  0.193E+00
   2.416  0.586E+00  0.195E+00  0.195E+00  0.195E+00
   2.426  0.591E+00  0.197E+00  0.197E+00  0.197E+00
   2.436  0.593E+00  0.198E+00  0.198E+00  0.198E+00
   2.446  0.594E+00  0.198E+00  0.198E+00  0.198E+00
   2.456  0.592E+00  0.197E+00  0.197E+00  0.197E+00
   2.466  0.589E+00  0.196E+00  0.196E+00  0.196E+00
   2.476  0.585E+00  0.195E+00  0.195E+00  0.195E+00
   2.486  0.579E+00  0.193E+00  0.193E+00  0.193E+00
   2.496  0.573E+00  0.191E+00  0.191E+00  0.191E+00
   2.506  0.566E+00  0.189E+00  0.189E+00  0.189E+00
   2.516  0.559E+00  0.186E+00  0.186E+00  0.186E+00
   2.526  0.552E+00  0.184E+00  0.184E+00  0.184E+00
   2.536  0.545E+00  0.182E+00  0.182E+00  0.182E+00
   2.546  0.538E+00  0.179E+00  0.179E+00  0.179E+00
   2.556  0.532E+00  0.177E+00  0.177E+00  0.177E+00
   2.566  0.525E+00  0.175E+00  0.175E+00  0.175E+00
   2.576  0.519E+00  0.173E+00  0.173E+00  0.173E+00
   2.586  0.513E+00  0.171E+00  0.171E+00  0.171E+00
   2.596  0.507E+00  0.169E+00  0.169E+00  0.169E+00
   2.606  0.501E+00  0.167E+00  0.167E+00  0.167E+00
   2.616  0.495E+00  0.165E+00  0.165E+00  0.165E+00
   2.626  0.488E+00  0.163E+00  0.163E+00  0.163E+00
   2.636  0.481E+00  0.160E+00  0.160E+00  0.160E+00
   2.646  0.474E+00  0.158E+00  0.158E+00  0.158E+00
   2.656  0.466E+00  0.155E+00  0.155E+00  0.155E+00
   2.666  0.458E+00  0.153E+00  0.153E+00  0.153E+00
   2.676  0.450E+00  0.150E+00  0.150E+00  0.150E+00
   2.686  0.441E+00  0.147E+00  0.147E+00  0.147E+00
   2.696  0.432E+00  0.144E+00  0.144E+00  0.144E+00
   2.706  0.424E+00  0.141E+00  0.141E+00  0.141E+00
   2.716  0.416E+00  0.139E+00  0.139E+00  0.139E+00
   2.726  0.409E+00  0.136E+00  0.136E+00  0.136E+00
   2.736  0.402E+00  0.134E+00  0.134E+00  0.134E+00
   2.746  0.397E+00  0.132E+00  0.132E+00  0.132E+00
   2.756  0.392E+00  0.131E+00  0.131E+00  0.131E+00
   2.766  0.389E+00  0.130E+00  0.130E+00  0.130E+00
   2.776  0.388E+00  0.129E+00  0.129E+00  0.129E+00
   2.786  0.388E+00  0.129E+00  0.129E+00  0.129E+00
   2.796  0.389E+00  0.130E+00  0.130E+00  0.130E+00
   2.806  0.392E+00  0.131E+00  0.131E+00  0.131E+00
   2.816  0.395E+00  0.132E+00  0.132E+00  0.132E+00
   2.826  0.399E+00  0.133E+00  0.133E+00  0.133E+00
   2.836  0.404E+00  0.135E+00  0.135E+00  0.135E+00
   2.846  0.409E+00  0.136E+00  0.136E+00  0.136E+00
   2.856  0.414E+00  0.138E+00  0.138E+00  0.138E+00
   2.866  0.418E+00  0.139E+00  0.139E+00  0.139E+00
   2.876  0.422E+00  0.141E+00  0.141E+00  0.141E+00
   2.886  0.425E+00  0.142E+00  0.142E+00  0.142E+00
   2.896  0.427E+00  0.142E+00  0.142E+00  0.142E+00
   2.906  0.427E+00  0.142E+00  0.142E+00  0.142E+00
   2.916  0.427E+00  0.142E+00  0.142E+00  0.142E+00
   2.926  0.425E+00  0.142E+00  0.142E+00  0.142E+00
   2.936  0.423E+00  0.141E+00  0.141E+00  0.141E+00
   2.946  0.419E+00  0.140E+00  0.140E+00  0.140E+00
   2.956  0.415E+00  0.138E+00  0.138E+00  0.138E+00
   2.966  0.411E+00  0.137E+00  0.137E+00  0.137E+00
   2.976  0.406E+00  0.135E+00  0.135E+00  0.135E+00
   2.986  0.402E+00  0.134E+00  0.134E+00  0.134E+00
   2.996  0.398E+00  0.133E+00  0.133E+00  0.133E+00
   3.006  0.395E+00  0.132E+00  0.132E+00  0.132E+00
   3.016  0.392E+00  0.131E+00  0.131E+00  0.131E+00
   3.026  0.390E+00  0.130E+00  0.130E+00  0.130E+00
   3.036  0.389E+00  0.130E+00  0.130E+00  0.130E+00
   3.046  0.389E+00  0.130E+00  0.130E+00  0.130E+00
   3.056  0.390E+00  0.130E+00  0.130E+00  0.130E+00
   3.066  0.391E+00  0.130E+00  0.130E+00  0.130E+00
   3.076  0.392E+00  0.131E+00  0.131E+00  0.131E+00
   3.086  0.394E+00  0.131E+00  0.131E+00  0.131E+00
   3.096  0.395E+00  0.132E+00  0.132E+00  0.132E+00
   3.106  0.396E+00  0.132E+00  0.132E+00  0.132E+00
   3.116  0.397E+00  0.132E+00  0.132E+00  0.132E+00
   3.126  0.396E+00  0.132E+00  0.132E+00  0.132E+00
   3.136  0.395E+00  0.132E+00  0.132E+00  0.132E+00
   3.146  0.393E+00  0.131E+00  0.131E+00  0.131E+00
   3.156  0.389E+00  0.130E+00  0.130E+00  0.130E+00
   3.166  0.384E+00  0.128E+00  0.128E+00  0.128E+00
   3.176  0.378E+00  0.126E+00  0.126E+00  0.126E+00
   3.186  0.371E+00  0.124E+00  0.124E+00  0.124E+00
   3.196  0.362E+00  0.121E+00  0.121E+00  0.121E+00
   3.206  0.353E+00  0.118E+00  0.118E+00  0.118E+00
   3.216  0.344E+00  0.115E+00  0.115E+00  0.115E+00
   3.226  0.334E+00  0.111E+00  0.111E+00  0.111E+00
   3.236  0.324E+00  0.108E+00  0.108E+00  0.108E+00
   3.246  0.314E+00  0.105E+00  0.105E+00  0.105E+00
   3.256  0.305E+00  0.102E+00  0.102E+00  0.102E+00
   3.266  0.297E+00  0.989E-01  0.989E-01  0.989E-01
   3.276  0.289E+00  0.965E-01  0.965E-01  0.965E-01
   3.286  0.283E+00  0.944E-01  0.944E-01  0.944E-01
   3.296  0.278E+00  0.928E-01  0.928E-01  0.928E-01
   3.306  0.275E+00  0.916E-01  0.916E-01  0.916E-01
   3.316  0.272E+00  0.908E-01  0.908E-01  0.908E-01
   3.326  0.271E+00  0.904E-01  0.904E-01  0.904E-01
   3.336  0.271E+00  0.903E-01  0.903E-01  0.903E-01
   3.346  0.272E+00  0.906E-01  0.906E-01  0.906E-01
   3.356  0.273E+00  0.910E-01  0.910E-01  0.910E-01
   3.366  0.275E+00  0.916E-01  0.916E-01  0.916E-01
   3.376  0.277E+00  0.923E-01  0.923E-01  0.923E-01
   3.386  0.279E+00  0.929E-01  0.929E-01  0.929E-01
   3.396  0.280E+00  0.935E-01  0.935E-01  0.935E-01
   3.406  0.282E+00  0.939E-01  0.939E-01  0.939E-01
   3.416  0.282E+00  0.940E-01  0.940E-01  0.940E-01
   3.426  0.282E+00  0.939E-01  0.939E-01  0.939E-01
   3.436  0.280E+00  0.935E-01  0.935E-01  0.935E-01
   3.446  0.278E+00  0.928E-01  0.928E-01  0.928E-01
   3.456  0.275E+00  0.918E-01  0.918E-01  0.918E-01
   3.466  0.272E+00  0.905E-01  0.905E-01  0.905E-01
   3.476  0.267E+00  0.890E-01  0.890E-01  0.890E-01
   3.486  0.262E+00  0.874E-01  0.874E-01  0.874E-01
   3.496  0.257E+00  0.856E-01  0.856E-01  0.856E-01
   3.506  0.251E+00  0.837E-01  0.837E-01  0.837E-01
   3.516  0.246E+00  0.819E-01  0.819E-01  0.819E-01
   3.526  0.241E+00  0.803E-01  0.803E-01  0.803E-01
   3.536  0.236E+00  0.788E-01  0.788E-01  0.788E-01
   3.546  0.233E+00  0.775E-01  0.775E-01  0.775E-01
   3.556  0.230E+00  0.766E-01  0.766E-01  0.766E-01
   3.566  0.228E+00  0.760E-01  0.760E-01  0.760E-01
   3.576  0.228E+00  0.758E-01  0.758E-01  0.758E-01
   3.586  0.228E+00  0.761E-01  0.761E-01  0.761E-01
   3.596  0.230E+00  0.768E-01  0.768E-01  0.768E-01
   3.606  0.234E+00  0.779E-01  0.779E-01  0.779E-01
   3.616  0.238E+00  0.794E-01  0.794E-01  0.794E-01
   3.626  0.244E+00  0.812E-01  0.812E-01  0.812E-01
   3.636  0.250E+00  0.833E-01  0.833E-01  0.833E-01
   3.646  0.257E+00  0.857E-01  0.857E-01  0.857E-01
   3.656  0.264E+00  0.881E-01  0.881E-01  0.881E-01
   3.666  0.272E+00  0.907E-01  0.907E-01  0.907E-01
   3.676  0.280E+00  0.932E-01  0.932E-01  0.932E-01
   3.686  0.287E+00  0.956E-01  0.956E-01  0.956E-01
   3.696  0.294E+00  0.979E-01  0.979E-01  0.979E-01
   3.706  0.300E+00  0.100E+00  0.100E+00  0.100E+00
   3.716  0.306E+00  0.102E+00  0.102E+00  0.102E+00
   3.726  0.310E+00  0.103E+00  0.103E+00  0.103E+00
   3.736  0.314E+00  0.105E+00  0.105E+00  0.105E+00
   3.746  0.318E+00  0.106E+00  0.106E+00  0.106E+00
   3.756  0.320E+00  0.107E+00  0.107E+00  0.107E+00
   3.766  0.322E+00  0.107E+00  0.107E+00  0.107E+00
   3.776  0.324E+00  0.108E+00  0.108E+00  0.108E+00
   3.786  0.325E+00  0.108E+00  0.108E+00  0.108E+00
   3.796  0.326E+00  0.109E+00  0.109E+00  0.109E+00
   3.806  0.327E+00  0.109E+00  0.109E+00  0.109E+00
   3.816  0.328E+00  0.109E+00  0.109E+00  0.109E+00
   3.826  0.330E+00  0.110E+00  0.110E+00  0.110E+00
   3.836  0.332E+00  0.111E+00  0.111E+00  0.111E+00
   3.846  0.335E+00  0.112E+00  0.112E+00  0.112E+00
   3.856  0.338E+00  0.113E+00  0.113E+00  0.113E+00
   3.866  0.343E+00  0.114E+00  0.114E+00  0.114E+00
   3.876  0.348E+00  0.116E+00  0.116E+00  0.116E+00
   3.886  0.354E+00  0.118E+00  0.118E+00  0.118E+00
   3.896  0.361E+00  0.120E+00  0.120E+00  0.120E+00
   3.906  0.370E+00  0.123E+00  0.123E+00  0.123E+00
   3.916  0.379E+00  0.126E+00  0.126E+00  0.126E+00
   3.926  0.389E+00  0.130E+00  0.130E+00  0.130E+00
   3.936  0.400E+00  0.133E+00  0.133E+00  0.133E+00
   3.946  0.412E+00  0.137E+00  0.137E+00  0.137E+00
   3.956  0.425E+00  0.142E+00  0.142E+00  0.142E+00
   3.966  0.438E+00  0.146E+00  0.146E+00  0.146E+00
   3.976  0.452E+00  0.151E+00  0.151E+00  0.151E+00
   3.986  0.467E+00  0.156E+00  0.156E+00  0.156E+00
   3.996  0.481E+00  0.160E+00  0.160E+00  0.160E+00
   4.006  0.496E+00  0.165E+00  0.165E+00  0.165E+00
   4.016  0.511E+00  0.170E+00  0.170E+00  0.170E+00
   4.026  0.525E+00  0.175E+00  0.175E+00  0.175E+00
   4.036  0.539E+00  0.180E+00  0.180E+00  0.180E+00
   4.046  0.553E+00  0.184E+00  0.184E+00  0.184E+00
   4.056  0.566E+00  0.189E+00  0.189E+00  0.189E+00
   4.066  0.578E+00  0.193E+00  0.193E+00  0.193E+00
   4.076  0.588E+00  0.196E+00  0.196E+00  0.196E+00
   4.086  0.598E+00  0.199E+00  0.199E+00  0.199E+00
   4.096  0.606E+00  0.202E+00  0.202E+00  0.202E+00
   4.106  0.613E+00  0.204E+00  0.204E+00  0.204E+00
   4.116  0.618E+00  0.206E+00  0.206E+00  0.206E+00
   4.126  0.621E+00  0.207E+00  0.207E+00  0.207E+00
   4.136  0.623E+00  0.208E+00  0.208E+00  0.208E+00
   4.146  0.623E+00  0.208E+00  0.208E+00  0.208E+00
   4.156  0.622E+00  0.207E+00  0.207E+00  0.207E+00
   4.166  0.619E+00  0.206E+00  0.206E+00  0.206E+00
   4.176  0.615E+00  0.205E+00  0.205E+00  0.205E+00
   4.186  0.609E+00  0.203E+00  0.203E+00  0.203E+00
   4.196  0.603E+00  0.201E+00  0.201E+00  0.201E+00
   4.206  0.595E+00  0.198E+00  0.198E+00  0.198E+00
   4.216  0.586E+00  0.195E+00  0.195E+00  0.195E+00
   4.226  0.577E+00  0.192E+00  0.192E+00  0.192E+00
   4.236  0.567E+00  0.189E+00  0.189E+00  0.189E+00
   4.246  0.556E+00  0.185E+00  0.185E+00  0.185E+00
   4.256  0.545E+00  0.182E+00  0.182E+00  0.182E+00
   4.266  0.533E+00  0.178E+00  0.178E+00  0.178E+00
   4.276  0.521E+00  0.174E+00  0.174E+00  0.174E+00
   4.286  0.509E+00  0.170E+00  0.170E+00  0.170E+00
   4.296  0.497E+00  0.166E+00  0.166E+00  0.166E+00
   4.306  0.484E+00  0.161E+00  0.161E+00  0.161E+00
   4.316  0.473E+00  0.158E+00  0.158E+00  0.158E+00
   4.326  0.461E+00  0.154E+00  0.154E+00  0.154E+00
   4.336  0.450E+00  0.150E+00  0.150E+00  0.150E+00
   4.346  0.440E+00  0.147E+00  0.147E+00  0.147E+00
   4.356  0.430E+00  0.143E+00  0.143E+00  0.143E+00
   4.366  0.422E+00  0.141E+00  0.141E+00  0.141E+00
   4.376  0.415E+00  0.138E+00  0.138E+00  0.138E+00
   4.386  0.409E+00  0.136E+00  0.136E+00  0.136E+00
   4.396  0.404E+00  0.135E+00  0.135E+00  0.135E+00
   4.406  0.401E+00  0.134E+00  0.134E+00  0.134E+00
   4.416  0.400E+00  0.133E+00  0.133E+00  0.133E+00
   4.426  0.400E+00  0.133E+00  0.133E+00  0.133E+00
   4.436  0.402E+00  0.134E+00  0.134E+00  0.134E+00
   4.446  0.405E+00  0.135E+00  0.135E+00  0.135E+00
   4.456  0.409E+00  0.136E+00  0.136E+00  0.136E+00
   4.466  0.415E+00  0.138E+00  0.138E+00  0.138E+00
   4.476  0.421E+00  0.140E+00  0.140E+00  0.140E+00
   4.486  0.429E+00  0.143E+00  0.143E+00  0.143E+00
   4.496  0.438E+00  0.146E+00  0.146E+00  0.146E+00
   4.506  0.447E+00  0.149E+00  0.149E+00  0.149E+00
   4.516  0.456E+00  0.152E+00  0.152E+00  0.152E+00
   4.526  0.465E+00  0.155E+00  0.155E+00  0.155E+00
   4.536  0.475E+00  0.158E+00  0.158E+00  0.158E+00
   4.546  0.484E+00  0.161E+00  0.161E+00  0.161E+00
   4.556  0.493E+00  0.164E+00  0.164E+00  0.164E+00
   4.566  0.501E+00  0.167E+00  0.167E+00  0.167E+00
   4.576  0.509E+00  0.170E+00  0.170E+00  0.170E+00
   4.586  0.516E+00  0.172E+00  0.172E+00  0.172E+00
   4.596  0.523E+00  0.174E+00  0.174E+00  0.174E+00
   4.606  0.528E+00  0.176E+00  0.176E+00  0.176E+00
   4.616  0.532E+00  0.177E+00  0.177E+00  0.177E+00
   4.626  0.535E+00  0.178E+00  0.178E+00  0.178E+00
   4.636  0.537E+00  0.179E+00  0.179E+00  0.179E+00
   4.646  0.538E+00  0.179E+00  0.179E+00  0.179E+00
   4.656  0.538E+00  0.179E+00  0.179E+00  0.179E+00
   4.666  0.537E+00  0.179E+00  0.179E+00  0.179E+00
   4.676  0.534E+00  0.178E+00  0.178E+00  0.178E+00
   4.686  0.530E+00  0.177E+00  0.177E+00  0.177E+00
   4.696  0.524E+00  0.175E+00  0.175E+00  0.175E+00
   4.706  0.518E+00  0.173E+00  0.173E+00  0.173E+00
   4.716  0.510E+00  0.170E+00  0.170E+00  0.170E+00
   4.726  0.501E+00  0.167E+00  0.167E+00  0.167E+00
   4.736  0.492E+00  0.164E+00  0.164E+00  0.164E+00
   4.746  0.481E+00  0.160E+00  0.160E+00  0.160E+00
   4.756  0.470E+00  0.157E+00  0.157E+00  0.157E+00
   4.766  0.459E+00  0.153E+00  0.153E+00  0.153E+00
   4.776  0.448E+00  0.149E+00  0.149E+00  0.149E+00
   4.786  0.437E+00  0.146E+00  0.146E+00  0.146E+00
   4.796  0.427E+00  0.142E+00  0.142E+00  0.142E+00
   4.806  0.417E+00  0.139E+00  0.139E+00  0.139E+00
   4.816  0.408E+00  0.136E+00  0.136E+00  0.136E+00
   4.826  0.399E+00  0.133E+00  0.133E+00  0.133E+00
   4.836  0.392E+00  0.131E+00  0.131E+00  0.131E+00
   4.846  0.386E+00  0.129E+00  0.129E+00  0.129E+00
   4.856  0.381E+00  0.127E+00  0.127E+00  0.127E+00
   4.866  0.377E+00  0.126E+00  0.126E+00  0.126E+00
   4.876  0.374E+00  0.125E+00  0.125E+00  0.125E+00
   4.886  0.371E+00  0.124E+00  0.124E+00  0.124E+00
   4.896  0.369E+00  0.123E+00  0.123E+00  0.123E+00
   4.906  0.367E+00  0.122E+00  0.122E+00  0.122E+00
   4.916  0.365E+00  0.122E+00  0.122E+00  0.122E+00
   4.926  0.363E+00  0.121E+00  0.121E+00  0.121E+00
   4.936  0.361E+00  0.120E+00  0.120E+00  0.120E+00
   4.946  0.357E+00  0.119E+00  0.119E+00  0.119E+00
   4.956  0.354E+00  0.118E+00  0.118E+00  0.118E+00
   4.966  0.349E+00  0.116E+00  0.116E+00  0.116E+00
   4.976  0.344E+00  0.115E+00  0.115E+00  0.115E+00
   4.986  0.339E+00  0.113E+00  0.113E+00  0.113E+00
   4.996  0.333E+00  0.111E+00  0.111E+00  0.111E+00
   5.006  0.326E+00  0.109E+00  0.109E+00  0.109E+00
   5.016  0.320E+00  0.107E+00  0.107E+00  0.107E+00
   5.026  0.314E+00  0.105E+00  0.105E+00  0.105E+00
   5.036  0.309E+00  0.103E+00  0.103E+00  0.103E+00
   5.046  0.305E+00  0.102E+00  0.102E+00  0.102E+00
   5.056  0.302E+00  0.101E+00  0.101E+00  0.101E+00
   5.066  0.300E+00  0.999E-01  0.999E-01  0.999E-01
   5.076  0.300E+00  0.999E-01  0.999E-01  0.999E-01
   5.086  0.301E+00  0.100E+00  0.100E+00  0.100E+00
   5.096  0.304E+00  0.101E+00  0.101E+00  0.101E+00
   5.106  0.309E+00  0.103E+00  0.103E+00  0.103E+00
   5.116  0.316E+00  0.105E+00  0.105E+00  0.105E+00
   5.126  0.325E+00  0.108E+00  0.108E+00  0.108E+00
   5.136  0.335E+00  0.112E+00  0.112E+00  0.112E+00
   5.146  0.346E+00  0.115E+00  0.115E+00  0.115E+00
   5.156  0.358E+00  0.119E+00  0.119E+00  0.119E+00
   5.166  0.371E+00  0.124E+00  0.124E+00  0.124E+00
   5.176  0.384E+00  0.128E+00  0.128E+00  0.128E+00
   5.186  0.397E+00  0.132E+00  0.132E+00  0.132E+00
   5.196  0.409E+00  0.136E+00  0.136E+00  0.136E+00
   5.206  0.421E+00  0.140E+00  0.140E+00  0.140E+00
   5.216  0.431E+00  0.144E+00  0.144E+00  0.144E+00
   5.226  0.440E+00  0.147E+00  0.147E+00  0.147E+00
   5.236  0.447E+00  0.149E+00  0.149E+00  0.149E+00
   5.246  0.452E+00  0.151E+00  0.151E+00  0.151E+00
   5.256  0.456E+00  0.152E+00  0.152E+00  0.152E+00
   5.266  0.457E+00  0.152E+00  0.152E+00  0.152E+00
   5.276  0.456E+00  0.152E+00  0.152E+00  0.152E+00
   5.286  0.453E+00  0.151E+00  0.151E+00  0.151E+00
   5.296  0.449E+00  0.150E+00  0.150E+00  0.150E+00
   5.306  0.442E+00  0.147E+00  0.147E+00  0.147E+00
   5.316  0.434E+00  0.145E+00  0.145E+00  0.145E+00
   5.326  0.426E+00  0.142E+00  0.142E+00  0.142E+00
   5.336  0.416E+00  0.139E+00  0.139E+00  0.139E+00
   5.346  0.406E+00  0.135E+00  0.135E+00  0.135E+00
   5.356  0.396E+00  0.132E+00  0.132E+00  0.132E+00
   5.366  0.386E+00  0.129E+00  0.129E+00  0.129E+00
   5.376  0.376E+00  0.125E+00  0.125E+00  0.125E+00
   5.386  0.367E+00  0.122E+00  0.122E+00  0.122E+00
   5.396  0.359E+00  0.120E+00  0.120E+00  0.120E+00
   5.406  0.352E+00  0.117E+00  0.117E+00  0.117E+00
   5.416  0.346E+00  0.115E+00  0.115E+00  0.115E+00
   5.426  0.341E+00  0.114E+00  0.114E+00  0.114E+00
   5.436  0.338E+00  0.113E+00  0.113E+00  0.113E+00
   5.446  0.335E+00  0.112E+00  0.112E+00  0.112E+00
   5.456  0.334E+00  0.111E+00  0.111E+00  0.111E+00
   5.466  0.334E+00  0.111E+00  0.111E+00  0.111E+00
   5.476  0.335E+00  0.112E+00  0.112E+00  0.112E+00
   5.486  0.337E+00  0.112E+00  0.112E+00  0.112E+00
   5.496  0.339E+00  0.113E+00  0.113E+00  0.113E+00
   5.506  0.343E+00  0.114E+00  0.114E+00  0.114E+00
   5.516  0.347E+00  0.116E+00  0.116E+00  0.116E+00
   5.526  0.352E+00  0.117E+00  0.117E+00  0.117E+00
   5.536  0.357E+00  0.119E+00  0.119E+00  0.119E+00
   5.546  0.363E+00  0.121E+00  0.121E+00  0.121E+00
   5.556  0.369E+00  0.123E+00  0.123E+00  0.123E+00
   5.566  0.376E+00  0.125E+00  0.125E+00  0.125E+00
   5.576  0.383E+00  0.128E+00  0.128E+00  0.128E+00
   5.586  0.391E+00  0.130E+00  0.130E+00  0.130E+00
   5.596  0.399E+00  0.133E+00  0.133E+00  0.133E+00
   5.606  0.407E+00  0.136E+00  0.136E+00  0.136E+00
   5.616  0.417E+00  0.139E+00  0.139E+00  0.139E+00
   5.626  0.426E+00  0.142E+00  0.142E+00  0.142E+00
   5.636  0.436E+00  0.145E+00  0.145E+00  0.145E+00
   5.646  0.447E+00  0.149E+00  0.149E+00  0.149E+00
   5.656  0.458E+00  0.153E+00  0.153E+00  0.153E+00
   5.666  0.469E+00  0.156E+00  0.156E+00  0.156E+00
   5.676  0.481E+00  0.160E+00  0.160E+00  0.160E+00
   5.686  0.493E+00  0.164E+00  0.164E+00  0.164E+00
   5.696  0.505E+00  0.168E+00  0.168E+00  0.168E+00
   5.706  0.517E+00  0.172E+00  0.172E+00  0.172E+00
   5.716  0.530E+00  0.177E+00  0.177E+00  0.177E+00
   5.726  0.542E+00  0.181E+00  0.181E+00  0.181E+00
   5.736  0.555E+00  0.185E+00  0.185E+00  0.185E+00
   5.746  0.568E+00  0.189E+00  0.189E+00  0.189E+00
   5.756  0.581E+00  0.194E+00  0.194E+00  0.194E+00
   5.766  0.594E+00  0.198E+00  0.198E+00  0.198E+00
   5.776  0.607E+00  0.202E+00  0.202E+00  0.202E+00
   5.786  0.621E+00  0.207E+00  0.207E+00  0.207E+00
   5.796  0.635E+00  0.212E+00  0.212E+00  0.212E+00
   5.806  0.649E+00  0.216E+00  0.216E+00  0.216E+00
   5.816  0.663E+00  0.221E+00  0.221E+00  0.221E+00
   5.826  0.677E+00  0.226E+00  0.226E+00  0.226E+00
   5.836  0.690E+00  0.230E+00  0.230E+00  0.230E+00
   5.846  0.703E+00  0.234E+00  0.234E+00  0.234E+00
   5.856  0.715E+00  0.238E+00  0.238E+00  0.238E+00
   5.866  0.726E+00  0.242E+00  0.242E+00  0.242E+00
   5.876  0.735E+00  0.245E+00  0.245E+00  0.245E+00
   5.886  0.742E+00  0.247E+00  0.247E+00  0.247E+00
   5.896  0.746E+00  0.249E+00  0.249E+00  0.249E+00
   5.906  0.748E+00  0.249E+00  0.249E+00  0.249E+00
   5.916  0.747E+00  0.249E+00  0.249E+00  0.249E+00
   5.926  0.743E+00  0.248E+00  0.248E+00  0.248E+00
   5.936  0.735E+00  0.245E+00  0.245E+00  0.245E+00
   5.946  0.724E+00  0.241E+00  0.241E+00  0.241E+00
   5.956  0.710E+00  0.237E+00  0.237E+00  0.237E+00
   5.966  0.694E+00  0.231E+00  0.231E+00  0.231E+00
   5.976  0.674E+00  0.225E+00  0.225E+00  0.225E+00
   5.986  0.652E+00  0.217E+00  0.217E+00  0.217E+00
   5.996  0.628E+00  0.209E+00  0.209E+00  0.209E+00
   6.006  0.603E+00  0.201E+00  0.201E+00  0.201E+00
   6.016  0.576E+00  0.192E+00  0.192E+00  0.192E+00
   6.026  0.549E+00  0.183E+00  0.183E+00  0.183E+00
   6.036  0.522E+00  0.174E+00  0.174E+00  0.174E+00
   6.046  0.495E+00  0.165E+00  0.165E+00  0.165E+00
   6.056  0.469E+00  0.156E+00  0.156E+00  0.156E+00
   6.066  0.444E+00  0.148E+00  0.148E+00  0.148E+00
   6.076  0.421E+00  0.140E+00  0.140E+00  0.140E+00
   6.086  0.399E+00  0.133E+00  0.133E+00  0.133E+00
   6.096  0.380E+00  0.127E+00  0.127E+00  0.127E+00
   6.106  0.363E+00  0.121E+00  0.121E+00  0.121E+00
   6.116  0.348E+00  0.116E+00  0.116E+00  0.116E+00
   6.126  0.336E+00  0.112E+00  0.112E+00  0.112E+00
   6.136  0.327E+00  0.109E+00  0.109E+00  0.109E+00
   6.146  0.320E+00  0.107E+00  0.107E+00  0.107E+00
   6.156  0.315E+00  0.105E+00  0.105E+00  0.105E+00
   6.166  0.313E+00  0.104E+00  0.104E+00  0.104E+00
   6.176  0.313E+00  0.104E+00  0.104E+00  0.104E+00
   6.186  0.315E+00  0.105E+00  0.105E+00  0.105E+00
   6.196  0.318E+00  0.106E+00  0.106E+00  0.106E+00
   6.206  0.323E+00  0.108E+00  0.108E+00  0.108E+00
   6.216  0.329E+00  0.110E+00  0.110E+00  0.110E+00
   6.226  0.336E+00  0.112E+00  0.112E+00  0.112E+00
   6.236  0.343E+00  0.114E+00  0.114E+00  0.114E+00
   6.246  0.350E+00  0.117E+00  0.117E+00  0.117E+00
   6.256  0.358E+00  0.119E+00  0.119E+00  0.119E+00
   6.266  0.364E+00  0.121E+00  0.121E+00  0.121E+00
   6.276  0.371E+00  0.124E+00  0.124E+00  0.124E+00
   6.286  0.376E+00  0.125E+00  0.125E+00  0.125E+00
   6.296  0.380E+00  0.127E+00  0.127E+00  0.127E+00
   6.306  0.383E+00  0.128E+00  0.128E+00  0.128E+00
   6.316  0.385E+00  0.128E+00  0.128E+00  0.128E+00
   6.326  0.385E+00  0.128E+00  0.128E+00  0.128E+00
   6.336  0.384E+00  0.128E+00  0.128E+00  0.128E+00
   6.346  0.381E+00  0.127E+00  0.127E+00  0.127E+00
   6.356  0.377E+00  0.126E+00  0.126E+00  0.126E+00
   6.366  0.371E+00  0.124E+00  0.124E+00  0.124E+00
   6.376  0.365E+00  0.122E+00  0.122E+00  0.122E+00
   6.386  0.357E+00  0.119E+00  0.119E+00  0.119E+00
   6.396  0.349E+00  0.116E+00  0.116E+00  0.116E+00
   6.406  0.341E+00  0.114E+00  0.114E+00  0.114E+00
   6.416  0.332E+00  0.111E+00  0.111E+00  0.111E+00
   6.426  0.323E+00  0.108E+00  0.108E+00  0.108E+00
   6.436  0.314E+00  0.105E+00  0.105E+00  0.105E+00
   6.446  0.306E+00  0.102E+00  0.102E+00  0.102E+00
   6.456  0.297E+00  0.991E-01  0.991E-01  0.991E-01
   6.466  0.290E+00  0.966E-01  0.966E-01  0.966E-01
   6.476  0.283E+00  0.942E-01  0.942E-01  0.942E-01
   6.486  0.276E+00  0.921E-01  0.921E-01  0.921E-01
   6.496  0.271E+00  0.902E-01  0.902E-01  0.902E-01
   6.506  0.266E+00  0.886E-01  0.886E-01  0.886E-01
   6.516  0.262E+00  0.872E-01  0.872E-01  0.872E-01
   6.526  0.258E+00  0.861E-01  0.861E-01  0.861E-01
   6.536  0.256E+00  0.852E-01  0.852E-01  0.852E-01
   6.546  0.254E+00  0.847E-01  0.847E-01  0.847E-01
   6.556  0.253E+00  0.844E-01  0.844E-01  0.844E-01
   6.566  0.253E+00  0.845E-01  0.845E-01  0.845E-01
   6.576  0.255E+00  0.848E-01  0.848E-01  0.848E-01
   6.586  0.257E+00  0.855E-01  0.855E-01  0.855E-01
   6.596  0.259E+00  0.865E-01  0.865E-01  0.865E-01
   6.606  0.263E+00  0.877E-01  0.877E-01  0.877E-01
   6.616  0.268E+00  0.893E-01  0.893E-01  0.893E-01
   6.626  0.273E+00  0.910E-01  0.910E-01  0.910E-01
   6.636  0.279E+00  0.930E-01  0.930E-01  0.930E-01
   6.646  0.285E+00  0.950E-01  0.950E-01  0.950E-01
   6.656  0.292E+00  0.972E-01  0.972E-01  0.972E-01
   6.666  0.298E+00  0.994E-01  0.994E-01  0.994E-01
   6.676  0.305E+00  0.102E+00  0.102E+00  0.102E+00
   6.686  0.311E+00  0.104E+00  0.104E+00  0.104E+00
   6.696  0.316E+00  0.105E+00  0.105E+00  0.105E+00
   6.706  0.322E+00  0.107E+00  0.107E+00  0.107E+00
   6.716  0.326E+00  0.109E+00  0.109E+00  0.109E+00
   6.726  0.330E+00  0.110E+00  0.110E+00  0.110E+00
   6.736  0.333E+00  0.111E+00  0.111E+00  0.111E+00
   6.746  0.335E+00  0.112E+00  0.112E+00  0.112E+00
   6.756  0.337E+00  0.112E+00  0.112E+00  0.112E+00
   6.766  0.338E+00  0.113E+00  0.113E+00  0.113E+00
   6.776  0.339E+00  0.113E+00  0.113E+00  0.113E+00
   6.786  0.340E+00  0.113E+00  0.113E+00  0.113E+00
   6.796  0.340E+00  0.113E+00  0.113E+00  0.113E+00
   6.806  0.341E+00  0.114E+00  0.114E+00  0.114E+00
   6.816  0.342E+00  0.114E+00  0.114E+00  0.114E+00
   6.826  0.343E+00  0.114E+00  0.114E+00  0.114E+00
   6.836  0.345E+00  0.115E+00  0.115E+00  0.115E+00
   6.846  0.348E+00  0.116E+00  0.116E+00  0.116E+00
   6.856  0.352E+00  0.117E+00  0.117E+00  0.117E+00
   6.866  0.357E+00  0.119E+00  0.119E+00  0.119E+00
   6.876  0.363E+00  0.121E+00  0.121E+00  0.121E+00
   6.886  0.371E+00  0.124E+00  0.124E+00  0.124E+00
   6.896  0.380E+00  0.127E+00  0.127E+00  0.127E+00
   6.906  0.390E+00  0.130E+00  0.130E+00  0.130E+00
   6.916  0.402E+00  0.134E+00  0.134E+00  0.134E+00
   6.926  0.415E+00  0.138E+00  0.138E+00  0.138E+00
   6.936  0.430E+00  0.143E+00  0.143E+00  0.143E+00
   6.946  0.446E+00  0.149E+00  0.149E+00  0.149E+00
   6.956  0.464E+00  0.155E+00  0.155E+00  0.155E+00
   6.966  0.483E+00  0.161E+00  0.161E+00  0.161E+00
   6.976  0.504E+00  0.168E+00  0.168E+00  0.168E+00
   6.986  0.525E+00  0.175E+00  0.175E+00  0.175E+00
   6.996  0.548E+00  0.183E+00  0.183E+00  0.183E+00
   7.006  0.571E+00  0.190E+00  0.190E+00  0.190E+00
   7.016  0.594E+00  0.198E+00  0.198E+00  0.198E+00
   7.026  0.618E+00  0.206E+00  0.206E+00  0.206E+00
   7.036  0.642E+00  0.214E+00  0.214E+00  0.214E+00
   7.046  0.665E+00  0.222E+00  0.222E+00  0.222E+00
   7.056  0.688E+00  0.229E+00  0.229E+00  0.229E+00
   7.066  0.710E+00  0.237E+00  0.237E+00  0.237E+00
   7.076  0.730E+00  0.243E+00  0.243E+00  0.243E+00
   7.086  0.748E+00  0.249E+00  0.249E+00  0.249E+00
   7.096  0.764E+00  0.255E+00  0.255E+00  0.255E+00
   7.106  0.778E+00  0.259E+00  0.259E+00  0.259E+00
   7.116  0.788E+00  0.263E+00  0.263E+00  0.263E+00
   7.126  0.796E+00  0.265E+00  0.265E+00  0.265E+00
   7.136  0.799E+00  0.266E+00  0.266E+00  0.266E+00
   7.146  0.799E+00  0.266E+00  0.266E+00  0.266E+00
   7.156  0.794E+00  0.265E+00  0.265E+00  0.265E+00
   7.166  0.785E+00  0.262E+00  0.262E+00  0.262E+00
   7.176  0.772E+00  0.257E+00  0.257E+00  0.257E+00
   7.186  0.755E+00  0.252E+00  0.252E+00  0.252E+00
   7.196  0.734E+00  0.245E+00  0.245E+00  0.245E+00
   7.206  0.710E+00  0.237E+00  0.237E+00  0.237E+00
   7.216  0.682E+00  0.227E+00  0.227E+00  0.227E+00
   7.226  0.652E+00  0.217E+00  0.217E+00  0.217E+00
   7.236  0.620E+00  0.207E+00  0.207E+00  0.207E+00
   7.246  0.587E+00  0.196E+00  0.196E+00  0.196E+00
   7.256  0.552E+00  0.184E+00  0.184E+00  0.184E+00
   7.266  0.518E+00  0.173E+00  0.173E+00  0.173E+00
   7.276  0.483E+00  0.161E+00  0.161E+00  0.161E+00
   7.286  0.450E+00  0.150E+00  0.150E+00  0.150E+00
   7.296  0.418E+00  0.139E+00  0.139E+00  0.139E+00
   7.306  0.388E+00  0.129E+00  0.129E+00  0.129E+00
   7.316  0.359E+00  0.120E+00  0.120E+00  0.120E+00
   7.326  0.332E+00  0.111E+00  0.111E+00  0.111E+00
   7.336  0.308E+00  0.103E+00  0.103E+00  0.103E+00
   7.346  0.286E+00  0.952E-01  0.952E-01  0.952E-01
   7.356  0.265E+00  0.884E-01  0.884E-01  0.884E-01
   7.366  0.247E+00  0.823E-01  0.823E-01  0.823E-01
   7.376  0.230E+00  0.768E-01  0.768E-01  0.768E-01
   7.386  0.216E+00  0.719E-01  0.719E-01  0.719E-01
   7.396  0.202E+00  0.674E-01  0.674E-01  0.674E-01
   7.406  0.190E+00  0.634E-01  0.634E-01  0.634E-01
   7.416  0.180E+00  0.599E-01  0.599E-01  0.599E-01
   7.426  0.170E+00  0.566E-01  0.566E-01  0.566E-01
   7.436  0.161E+00  0.537E-01  0.537E-01  0.537E-01
   7.446  0.154E+00  0.512E-01  0.512E-01  0.512E-01
   7.456  0.147E+00  0.489E-01  0.489E-01  0.489E-01
   7.466  0.141E+00  0.469E-01  0.469E-01  0.469E-01
   7.476  0.135E+00  0.452E-01  0.452E-01  0.452E-01
   7.486  0.131E+00  0.437E-01  0.437E-01  0.437E-01
   7.496  0.128E+00  0.425E-01  0.425E-01  0.425E-01
   7.506  0.125E+00  0.416E-01  0.416E-01  0.416E-01
   7.516  0.123E+00  0.409E-01  0.409E-01  0.409E-01
   7.526  0.121E+00  0.405E-01  0.405E-01  0.405E-01
   7.536  0.121E+00  0.403E-01  0.403E-01  0.403E-01
   7.546  0.121E+00  0.403E-01  0.403E-01  0.403E-01
   7.556  0.122E+00  0.406E-01  0.406E-01  0.406E-01
   7.566  0.123E+00  0.410E-01  0.410E-01  0.410E-01
   7.576  0.125E+00  0.416E-01  0.416E-01  0.416E-01
   7.586  0.127E+00  0.423E-01  0.423E-01  0.423E-01
   7.596  0.130E+00  0.432E-01  0.432E-01  0.432E-01
   7.606  0.133E+00  0.442E-01  0.442E-01  0.442E-01
   7.616  0.136E+00  0.452E-01  0.452E-01  0.452E-01
   7.626  0.139E+00  0.464E-01  0.464E-01  0.464E-01
   7.636  0.143E+00  0.475E-01  0.475E-01  0.475E-01
   7.646  0.146E+00  0.487E-01  0.487E-01  0.487E-01
   7.656  0.150E+00  0.499E-01  0.499E-01  0.499E-01
   7.666  0.153E+00  0.512E-01  0.512E-01  0.512E-01
   7.676  0.157E+00  0.524E-01  0.524E-01  0.524E-01
   7.686  0.161E+00  0.536E-01  0.536E-01  0.536E-01
   7.696  0.164E+00  0.548E-01  0.548E-01  0.548E-01
   7.706  0.168E+00  0.560E-01  0.560E-01  0.560E-01
   7.716  0.172E+00  0.572E-01  0.572E-01  0.572E-01
   7.726  0.175E+00  0.585E-01  0.585E-01  0.585E-01
   7.736  0.179E+00  0.597E-01  0.597E-01  0.597E-01
   7.746  0.183E+00  0.610E-01  0.610E-01  0.610E-01
   7.756  0.187E+00  0.623E-01  0.623E-01  0.623E-01
   7.766  0.191E+00  0.636E-01  0.636E-01  0.636E-01
   7.776  0.195E+00  0.650E-01  0.650E-01  0.650E-01
   7.786  0.199E+00  0.663E-01  0.663E-01  0.663E-01
   7.796  0.203E+00  0.676E-01  0.676E-01  0.676E-01
   7.806  0.207E+00  0.688E-01  0.688E-01  0.688E-01
   7.816  0.210E+00  0.700E-01  0.700E-01  0.700E-01
   7.826  0.213E+00  0.712E-01  0.712E-01  0.712E-01
   7.836  0.216E+00  0.721E-01  0.721E-01  0.721E-01
   7.846  0.219E+00  0.730E-01  0.730E-01  0.730E-01
   7.856  0.221E+00  0.736E-01  0.736E-01  0.736E-01
   7.866  0.222E+00  0.741E-01  0.741E-01  0.741E-01
   7.876  0.223E+00  0.744E-01  0.744E-01  0.744E-01
   7.886  0.223E+00  0.745E-01  0.745E-01  0.745E-01
   7.896  0.223E+00  0.743E-01  0.743E-01  0.743E-01
   7.906  0.222E+00  0.740E-01  0.740E-01  0.740E-01
   7.916  0.220E+00  0.734E-01  0.734E-01  0.734E-01
   7.926  0.218E+00  0.727E-01  0.727E-01  0.727E-01
   7.936  0.215E+00  0.718E-01  0.718E-01  0.718E-01
   7.946  0.213E+00  0.708E-01  0.708E-01  0.708E-01
   7.956  0.209E+00  0.698E-01  0.698E-01  0.698E-01
   7.966  0.206E+00  0.686E-01  0.686E-01  0.686E-01
   7.976  0.202E+00  0.674E-01  0.674E-01  0.674E-01
   7.986  0.199E+00  0.662E-01  0.662E-01  0.662E-01
   7.996  0.195E+00  0.650E-01  0.650E-01  0.650E-01
   8.006  0.192E+00  0.639E-01  0.639E-01  0.639E-01
   8.016  0.188E+00  0.628E-01  0.628E-01  0.628E-01
   8.026  0.185E+00  0.617E-01  0.617E-01  0.617E-01
   8.036  0.182E+00  0.607E-01  0.607E-01  0.607E-01
   8.046  0.180E+00  0.598E-01  0.598E-01  0.598E-01
   8.056  0.177E+00  0.590E-01  0.590E-01  0.590E-01
   8.066  0.175E+00  0.582E-01  0.582E-01  0.582E-01
   8.076  0.173E+00  0.575E-01  0.575E-01  0.575E-01
   8.086  0.171E+00  0.569E-01  0.569E-01  0.569E-01
   8.096  0.169E+00  0.562E-01  0.562E-01  0.562E-01
   8.106  0.167E+00  0.556E-01  0.556E-01  0.556E-01
   8.116  0.165E+00  0.549E-01  0.549E-01  0.549E-01
   8.126  0.163E+00  0.543E-01  0.543E-01  0.543E-01
   8.136  0.161E+00  0.536E-01  0.536E-01  0.536E-01
   8.146  0.158E+00  0.528E-01  0.528E-01  0.528E-01
   8.156  0.156E+00  0.520E-01  0.520E-01  0.520E-01
   8.166  0.154E+00  0.512E-01  0.512E-01  0.512E-01
   8.176  0.151E+00  0.503E-01  0.503E-01  0.503E-01
   8.186  0.148E+00  0.493E-01  0.493E-01  0.493E-01
   8.196  0.145E+00  0.484E-01  0.484E-01  0.484E-01
   8.206  0.142E+00  0.474E-01  0.474E-01  0.474E-01
   8.216  0.139E+00  0.464E-01  0.464E-01  0.464E-01
   8.226  0.137E+00  0.455E-01  0.455E-01  0.455E-01
   8.236  0.134E+00  0.447E-01  0.447E-01  0.447E-01
   8.246  0.132E+00  0.440E-01  0.440E-01  0.440E-01
   8.256  0.130E+00  0.434E-01  0.434E-01  0.434E-01
   8.266  0.129E+00  0.431E-01  0.431E-01  0.431E-01
   8.276  0.129E+00  0.429E-01  0.429E-01  0.429E-01
   8.286  0.129E+00  0.430E-01  0.430E-01  0.430E-01
   8.296  0.130E+00  0.433E-01  0.433E-01  0.433E-01
   8.306  0.132E+00  0.439E-01  0.439E-01  0.439E-01
   8.316  0.134E+00  0.448E-01  0.448E-01  0.448E-01
   8.326  0.138E+00  0.460E-01  0.460E-01  0.460E-01
   8.336  0.142E+00  0.474E-01  0.474E-01  0.474E-01
   8.346  0.147E+00  0.491E-01  0.491E-01  0.491E-01
   8.356  0.153E+00  0.510E-01  0.510E-01  0.510E-01
   8.366  0.159E+00  0.531E-01  0.531E-01  0.531E-01
   8.376  0.166E+00  0.554E-01  0.554E-01  0.554E-01
   8.386  0.173E+00  0.578E-01  0.578E-01  0.578E-01
   8.396  0.181E+00  0.603E-01  0.603E-01  0.603E-01
   8.406  0.188E+00  0.628E-01  0.628E-01  0.628E-01
   8.416  0.196E+00  0.652E-01  0.652E-01  0.652E-01
   8.426  0.203E+00  0.677E-01  0.677E-01  0.677E-01
   8.436  0.210E+00  0.699E-01  0.699E-01  0.699E-01
   8.446  0.216E+00  0.721E-01  0.721E-01  0.721E-01
   8.456  0.222E+00  0.740E-01  0.740E-01  0.740E-01
   8.466  0.227E+00  0.757E-01  0.757E-01  0.757E-01
   8.476  0.231E+00  0.771E-01  0.771E-01  0.771E-01
   8.486  0.235E+00  0.782E-01  0.782E-01  0.782E-01
   8.496  0.237E+00  0.791E-01  0.791E-01  0.791E-01
   8.506  0.239E+00  0.796E-01  0.796E-01  0.796E-01
   8.516  0.239E+00  0.797E-01  0.797E-01  0.797E-01
   8.526  0.239E+00  0.796E-01  0.796E-01  0.796E-01
   8.536  0.237E+00  0.791E-01  0.791E-01  0.791E-01
   8.546  0.235E+00  0.784E-01  0.784E-01  0.784E-01
   8.556  0.232E+00  0.775E-01  0.775E-01  0.775E-01
   8.566  0.229E+00  0.763E-01  0.763E-01  0.763E-01
   8.576  0.225E+00  0.750E-01  0.750E-01  0.750E-01
   8.586  0.221E+00  0.735E-01  0.735E-01  0.735E-01
   8.596  0.216E+00  0.720E-01  0.720E-01  0.720E-01
   8.606  0.212E+00  0.706E-01  0.706E-01  0.706E-01
   8.616  0.207E+00  0.691E-01  0.691E-01  0.691E-01
   8.626  0.204E+00  0.678E-01  0.678E-01  0.678E-01
   8.636  0.200E+00  0.667E-01  0.667E-01  0.667E-01
   8.646  0.197E+00  0.658E-01  0.658E-01  0.658E-01
   8.656  0.195E+00  0.651E-01  0.651E-01  0.651E-01
   8.666  0.194E+00  0.647E-01  0.647E-01  0.647E-01
   8.676  0.193E+00  0.645E-01  0.645E-01  0.645E-01
   8.686  0.194E+00  0.646E-01  0.646E-01  0.646E-01
   8.696  0.195E+00  0.650E-01  0.650E-01  0.650E-01
   8.706  0.197E+00  0.656E-01  0.656E-01  0.656E-01
   8.716  0.199E+00  0.664E-01  0.664E-01  0.664E-01
   8.726  0.202E+00  0.673E-01  0.673E-01  0.673E-01
   8.736  0.205E+00  0.684E-01  0.684E-01  0.684E-01
   8.746  0.209E+00  0.696E-01  0.696E-01  0.696E-01
   8.756  0.212E+00  0.708E-01  0.708E-01  0.708E-01
   8.766  0.216E+00  0.720E-01  0.720E-01  0.720E-01
   8.776  0.219E+00  0.731E-01  0.731E-01  0.731E-01
   8.786  0.223E+00  0.742E-01  0.742E-01  0.742E-01
   8.796  0.225E+00  0.751E-01  0.751E-01  0.751E-01
   8.806  0.228E+00  0.759E-01  0.759E-01  0.759E-01
   8.816  0.230E+00  0.766E-01  0.766E-01  0.766E-01
   8.826  0.231E+00  0.771E-01  0.771E-01  0.771E-01
   8.836  0.232E+00  0.773E-01  0.773E-01  0.773E-01
   8.846  0.232E+00  0.775E-01  0.775E-01  0.775E-01
   8.856  0.232E+00  0.774E-01  0.774E-01  0.774E-01
   8.866  0.231E+00  0.771E-01  0.771E-01  0.771E-01
   8.876  0.230E+00  0.767E-01  0.767E-01  0.767E-01
   8.886  0.228E+00  0.761E-01  0.761E-01  0.761E-01
   8.896  0.226E+00  0.754E-01  0.754E-01  0.754E-01
   8.906  0.224E+00  0.745E-01  0.745E-01  0.745E-01
   8.916  0.221E+00  0.735E-01  0.735E-01  0.735E-01
   8.926  0.217E+00  0.724E-01  0.724E-01  0.724E-01
   8.936  0.214E+00  0.712E-01  0.712E-01  0.712E-01
   8.946  0.210E+00  0.700E-01  0.700E-01  0.700E-01
   8.956  0.206E+00  0.686E-01  0.686E-01  0.686E-01
   8.966  0.202E+00  0.672E-01  0.672E-01  0.672E-01
   8.976  0.197E+00  0.658E-01  0.658E-01  0.658E-01
   8.986  0.193E+00  0.643E-01  0.643E-01  0.643E-01
   8.996  0.188E+00  0.628E-01  0.628E-01  0.628E-01
   9.006  0.184E+00  0.613E-01  0.613E-01  0.613E-01
   9.016  0.180E+00  0.599E-01  0.599E-01  0.599E-01
   9.026  0.176E+00  0.586E-01  0.586E-01  0.586E-01
   9.036  0.172E+00  0.573E-01  0.573E-01  0.573E-01
   9.046  0.168E+00  0.562E-01  0.562E-01  0.562E-01
   9.056  0.166E+00  0.552E-01  0.552E-01  0.552E-01
   9.066  0.163E+00  0.545E-01  0.545E-01  0.545E-01
   9.076  0.162E+00  0.541E-01  0.541E-01  0.541E-01
   9.086  0.162E+00  0.540E-01  0.540E-01  0.540E-01
   9.096  0.163E+00  0.543E-01  0.543E-01  0.543E-01
   9.106  0.166E+00  0.552E-01  0.552E-01  0.552E-01
   9.116  0.170E+00  0.566E-01  0.566E-01  0.566E-01
   9.126  0.176E+00  0.587E-01  0.587E-01  0.587E-01
   9.136  0.184E+00  0.615E-01  0.615E-01  0.615E-01
   9.146  0.195E+00  0.651E-01  0.651E-01  0.651E-01
   9.156  0.209E+00  0.695E-01  0.695E-01  0.695E-01
   9.166  0.225E+00  0.749E-01  0.749E-01  0.749E-01
   9.176  0.243E+00  0.812E-01  0.812E-01  0.812E-01
   9.186  0.265E+00  0.884E-01  0.884E-01  0.884E-01
   9.196  0.290E+00  0.966E-01  0.966E-01  0.966E-01
   9.206  0.317E+00  0.106E+00  0.106E+00  0.106E+00
   9.216  0.347E+00  0.116E+00  0.116E+00  0.116E+00
   9.226  0.379E+00  0.126E+00  0.126E+00  0.126E+00
   9.236  0.413E+00  0.138E+00  0.138E+00  0.138E+00
   9.246  0.448E+00  0.149E+00  0.149E+00  0.149E+00
   9.256  0.485E+00  0.162E+00  0.162E+00  0.162E+00
   9.266  0.522E+00  0.174E+00  0.174E+00  0.174E+00
   9.276  0.558E+00  0.186E+00  0.186E+00  0.186E+00
   9.286  0.594E+00  0.198E+00  0.198E+00  0.198E+00
   9.296  0.628E+00  0.209E+00  0.209E+00  0.209E+00
   9.306  0.661E+00  0.220E+00  0.220E+00  0.220E+00
   9.316  0.690E+00  0.230E+00  0.230E+00  0.230E+00
   9.326  0.716E+00  0.239E+00  0.239E+00  0.239E+00
   9.336  0.739E+00  0.246E+00  0.246E+00  0.246E+00
   9.346  0.757E+00  0.252E+00  0.252E+00  0.252E+00
   9.356  0.771E+00  0.257E+00  0.257E+00  0.257E+00
   9.366  0.781E+00  0.260E+00  0.260E+00  0.260E+00
   9.376  0.786E+00  0.262E+00  0.262E+00  0.262E+00
   9.386  0.787E+00  0.262E+00  0.262E+00  0.262E+00
   9.396  0.783E+00  0.261E+00  0.261E+00  0.261E+00
   9.406  0.776E+00  0.259E+00  0.259E+00  0.259E+00
   9.416  0.765E+00  0.255E+00  0.255E+00  0.255E+00
   9.426  0.751E+00  0.250E+00  0.250E+00  0.250E+00
   9.436  0.735E+00  0.245E+00  0.245E+00  0.245E+00
   9.446  0.716E+00  0.239E+00  0.239E+00  0.239E+00
   9.456  0.696E+00  0.232E+00  0.232E+00  0.232E+00
   9.466  0.675E+00  0.225E+00  0.225E+00  0.225E+00
   9.476  0.653E+00  0.218E+00  0.218E+00  0.218E+00
   9.486  0.631E+00  0.210E+00  0.210E+00  0.210E+00
   9.496  0.609E+00  0.203E+00  0.203E+00  0.203E+00
   9.506  0.588E+00  0.196E+00  0.196E+00  0.196E+00
   9.516  0.568E+00  0.189E+00  0.189E+00  0.189E+00
   9.526  0.549E+00  0.183E+00  0.183E+00  0.183E+00
   9.536  0.531E+00  0.177E+00  0.177E+00  0.177E+00
   9.546  0.514E+00  0.171E+00  0.171E+00  0.171E+00
   9.556  0.500E+00  0.167E+00  0.167E+00  0.167E+00
   9.566  0.487E+00  0.162E+00  0.162E+00  0.162E+00
   9.576  0.476E+00  0.159E+00  0.159E+00  0.159E+00
   9.586  0.467E+00  0.156E+00  0.156E+00  0.156E+00
   9.596  0.459E+00  0.153E+00  0.153E+00  0.153E+00
   9.606  0.454E+00  0.151E+00  0.151E+00  0.151E+00
   9.616  0.451E+00  0.150E+00  0.150E+00  0.150E+00
   9.626  0.449E+00  0.150E+00  0.150E+00  0.150E+00
   9.636  0.449E+00  0.150E+00  0.150E+00  0.150E+00
   9.646  0.452E+00  0.151E+00  0.151E+00  0.151E+00
   9.656  0.456E+00  0.152E+00  0.152E+00  0.152E+00
   9.666  0.461E+00  0.154E+00  0.154E+00  0.154E+00
   9.676  0.469E+00  0.156E+00  0.156E+00  0.156E+00
   9.686  0.478E+00  0.159E+00  0.159E+00  0.159E+00
   9.696  0.488E+00  0.163E+00  0.163E+00  0.163E+00
   9.706  0.499E+00  0.166E+00  0.166E+00  0.166E+00
   9.716  0.512E+00  0.171E+00  0.171E+00  0.171E+00
   9.726  0.526E+00  0.175E+00  0.175E+00  0.175E+00
   9.736  0.542E+00  0.181E+00  0.181E+00  0.181E+00
   9.746  0.558E+00  0.186E+00  0.186E+00  0.186E+00
   9.756  0.576E+00  0.192E+00  0.192E+00  0.192E+00
   9.766  0.595E+00  0.198E+00  0.198E+00  0.198E+00
   9.776  0.614E+00  0.205E+00  0.205E+00  0.205E+00
   9.786  0.635E+00  0.212E+00  0.212E+00  0.212E+00
   9.796  0.657E+00  0.219E+00  0.219E+00  0.219E+00
   9.806  0.680E+00  0.227E+00  0.227E+00  0.227E+00
   9.816  0.703E+00  0.234E+00  0.234E+00  0.234E+00
   9.826  0.728E+00  0.243E+00  0.243E+00  0.243E+00
   9.836  0.752E+00  0.251E+00  0.251E+00  0.251E+00
   9.846  0.777E+00  0.259E+00  0.259E+00  0.259E+00
   9.856  0.801E+00  0.267E+00  0.267E+00  0.267E+00
   9.866  0.825E+00  0.275E+00  0.275E+00  0.275E+00
   9.876  0.848E+00  0.283E+00  0.283E+00  0.283E+00
   9.886  0.869E+00  0.290E+00  0.290E+00  0.290E+00
   9.896  0.889E+00  0.296E+00  0.296E+00  0.296E+00
   9.906  0.906E+00  0.302E+00  0.302E+00  0.302E+00
   9.916  0.920E+00  0.307E+00  0.307E+00  0.307E+00
   9.926  0.931E+00  0.310E+00  0.310E+00  0.310E+00
   9.936  0.939E+00  0.313E+00  0.313E+00  0.313E+00
   9.946  0.944E+00  0.315E+00  0.315E+00  0.315E+00
   9.956  0.945E+00  0.315E+00  0.315E+00  0.315E+00
   9.966  0.942E+00  0.314E+00  0.314E+00  0.314E+00
   9.976  0.936E+00  0.312E+00  0.312E+00  0.312E+00
   9.986  0.926E+00  0.309E+00  0.309E+00  0.309E+00
   9.996  0.914E+00  0.305E+00  0.305E+00  0.305E+00
  10.006  0.899E+00  0.300E+00  0.300E+00  0.300E+00
  10.016  0.882E+00  0.294E+00  0.294E+00  0.294E+00
  10.026  0.863E+00  0.288E+00  0.288E+00  0.288E+00
  10.036  0.843E+00  0.281E+00  0.281E+00  0.281E+00
  10.046  0.823E+00  0.274E+00  0.274E+00  0.274E+00
  10.056  0.803E+00  0.268E+00  0.268E+00  0.268E+00
  10.066  0.784E+00  0.261E+00  0.261E+00  0.261E+00
  10.076  0.765E+00  0.255E+00  0.255E+00  0.255E+00
  10.086  0.748E+00  0.249E+00  0.249E+00  0.249E+00
  10.096  0.733E+00  0.244E+00  0.244E+00  0.244E+00
  10.106  0.720E+00  0.240E+00  0.240E+00  0.240E+00
  10.116  0.708E+00  0.236E+00  0.236E+00  0.236E+00
  10.126  0.699E+00  0.233E+00  0.233E+00  0.233E+00
  10.136  0.692E+00  0.231E+00  0.231E+00  0.231E+00
  10.146  0.686E+00  0.229E+00  0.229E+00  0.229E+00
  10.156  0.682E+00  0.227E+00  0.227E+00  0.227E+00
  10.166  0.679E+00  0.226E+00  0.226E+00  0.226E+00
  10.176  0.677E+00  0.226E+00  0.226E+00  0.226E+00
  10.186  0.675E+00  0.225E+00  0.225E+00  0.225E+00
  10.196  0.673E+00  0.224E+00  0.224E+00  0.224E+00
  10.206  0.671E+00  0.224E+00  0.224E+00  0.224E+00
  10.216  0.667E+00  0.222E+00  0.222E+00  0.222E+00
  10.226  0.662E+00  0.221E+00  0.221E+00  0.221E+00
  10.236  0.655E+00  0.218E+00  0.218E+00  0.218E+00
  10.246  0.646E+00  0.215E+00  0.215E+00  0.215E+00
  10.256  0.635E+00  0.212E+00  0.212E+00  0.212E+00
  10.266  0.622E+00  0.207E+00  0.207E+00  0.207E+00
  10.276  0.607E+00  0.202E+00  0.202E+00  0.202E+00
  10.286  0.590E+00  0.197E+00  0.197E+00  0.197E+00
  10.296  0.571E+00  0.190E+00  0.190E+00  0.190E+00
  10.306  0.551E+00  0.184E+00  0.184E+00  0.184E+00
  10.316  0.529E+00  0.176E+00  0.176E+00  0.176E+00
  10.326  0.508E+00  0.169E+00  0.169E+00  0.169E+00
  10.336  0.486E+00  0.162E+00  0.162E+00  0.162E+00
  10.346  0.464E+00  0.155E+00  0.155E+00  0.155E+00
  10.356  0.443E+00  0.148E+00  0.148E+00  0.148E+00
  10.366  0.422E+00  0.141E+00  0.141E+00  0.141E+00
  10.376  0.403E+00  0.134E+00  0.134E+00  0.134E+00
  10.386  0.385E+00  0.128E+00  0.128E+00  0.128E+00
  10.396  0.369E+00  0.123E+00  0.123E+00  0.123E+00
  10.406  0.353E+00  0.118E+00  0.118E+00  0.118E+00
  10.416  0.340E+00  0.113E+00  0.113E+00  0.113E+00
  10.426  0.327E+00  0.109E+00  0.109E+00  0.109E+00
  10.436  0.316E+00  0.105E+00  0.105E+00  0.105E+00
  10.446  0.306E+00  0.102E+00  0.102E+00  0.102E+00
  10.456  0.296E+00  0.988E-01  0.988E-01  0.988E-01
  10.466  0.288E+00  0.959E-01  0.959E-01  0.959E-01
  10.476  0.280E+00  0.932E-01  0.932E-01  0.932E-01
  10.486  0.272E+00  0.907E-01  0.907E-01  0.907E-01
  10.496  0.265E+00  0.883E-01  0.883E-01  0.883E-01
  10.506  0.258E+00  0.860E-01  0.860E-01  0.860E-01
  10.516  0.251E+00  0.838E-01  0.838E-01  0.838E-01
  10.526  0.245E+00  0.816E-01  0.816E-01  0.816E-01
  10.536  0.239E+00  0.796E-01  0.796E-01  0.796E-01
  10.546  0.233E+00  0.776E-01  0.776E-01  0.776E-01
  10.556  0.227E+00  0.757E-01  0.757E-01  0.757E-01
  10.566  0.222E+00  0.740E-01  0.740E-01  0.740E-01
  10.576  0.217E+00  0.725E-01  0.725E-01  0.725E-01
  10.586  0.213E+00  0.711E-01  0.711E-01  0.711E-01
  10.596  0.210E+00  0.700E-01  0.700E-01  0.700E-01
  10.606  0.207E+00  0.692E-01  0.692E-01  0.692E-01
  10.616  0.206E+00  0.686E-01  0.686E-01  0.686E-01
  10.626  0.205E+00  0.683E-01  0.683E-01  0.683E-01
  10.636  0.205E+00  0.684E-01  0.684E-01  0.684E-01
  10.646  0.207E+00  0.688E-01  0.688E-01  0.688E-01
  10.656  0.209E+00  0.696E-01  0.696E-01  0.696E-01
  10.666  0.212E+00  0.707E-01  0.707E-01  0.707E-01
  10.676  0.217E+00  0.722E-01  0.722E-01  0.722E-01
  10.686  0.222E+00  0.740E-01  0.740E-01  0.740E-01
  10.696  0.228E+00  0.762E-01  0.762E-01  0.762E-01
  10.706  0.236E+00  0.786E-01  0.786E-01  0.786E-01
  10.716  0.244E+00  0.813E-01  0.813E-01  0.813E-01
  10.726  0.253E+00  0.843E-01  0.843E-01  0.843E-01
  10.736  0.262E+00  0.874E-01  0.874E-01  0.874E-01
  10.746  0.272E+00  0.907E-01  0.907E-01  0.907E-01
  10.756  0.282E+00  0.941E-01  0.941E-01  0.941E-01
  10.766  0.293E+00  0.976E-01  0.976E-01  0.976E-01
  10.776  0.303E+00  0.101E+00  0.101E+00  0.101E+00
  10.786  0.313E+00  0.104E+00  0.104E+00  0.104E+00
  10.796  0.323E+00  0.108E+00  0.108E+00  0.108E+00
  10.806  0.332E+00  0.111E+00  0.111E+00  0.111E+00
  10.816  0.341E+00  0.114E+00  0.114E+00  0.114E+00
  10.826  0.349E+00  0.116E+00  0.116E+00  0.116E+00
  10.836  0.357E+00  0.119E+00  0.119E+00  0.119E+00
  10.846  0.363E+00  0.121E+00  0.121E+00  0.121E+00
  10.856  0.369E+00  0.123E+00  0.123E+00  0.123E+00
  10.866  0.374E+00  0.125E+00  0.125E+00  0.125E+00
  10.876  0.378E+00  0.126E+00  0.126E+00  0.126E+00
  10.886  0.381E+00  0.127E+00  0.127E+00  0.127E+00
  10.896  0.383E+00  0.128E+00  0.128E+00  0.128E+00
  10.906  0.384E+00  0.128E+00  0.128E+00  0.128E+00
  10.916  0.385E+00  0.128E+00  0.128E+00  0.128E+00
  10.926  0.385E+00  0.128E+00  0.128E+00  0.128E+00
  10.936  0.384E+00  0.128E+00  0.128E+00  0.128E+00
  10.946  0.382E+00  0.127E+00  0.127E+00  0.127E+00
  10.956  0.380E+00  0.127E+00  0.127E+00  0.127E+00
  10.966  0.377E+00  0.126E+00  0.126E+00  0.126E+00
  10.976  0.373E+00  0.124E+00  0.124E+00  0.124E+00
  10.986  0.369E+00  0.123E+00  0.123E+00  0.123E+00
  10.996  0.364E+00  0.121E+00  0.121E+00  0.121E+00
  11.006  0.358E+00  0.119E+00  0.119E+00  0.119E+00
  11.016  0.353E+00  0.118E+00  0.118E+00  0.118E+00
  11.026  0.346E+00  0.115E+00  0.115E+00  0.115E+00
  11.036  0.339E+00  0.113E+00  0.113E+00  0.113E+00
  11.046  0.332E+00  0.111E+00  0.111E+00  0.111E+00
  11.056  0.325E+00  0.108E+00  0.108E+00  0.108E+00
  11.066  0.317E+00  0.106E+00  0.106E+00  0.106E+00
  11.076  0.309E+00  0.103E+00  0.103E+00  0.103E+00
  11.086  0.301E+00  0.100E+00  0.100E+00  0.100E+00
  11.096  0.292E+00  0.973E-01  0.973E-01  0.973E-01
  11.106  0.283E+00  0.944E-01  0.944E-01  0.944E-01
  11.116  0.274E+00  0.913E-01  0.913E-01  0.913E-01
  11.126  0.265E+00  0.882E-01  0.882E-01  0.882E-01
  11.136  0.255E+00  0.851E-01  0.851E-01  0.851E-01
  11.146  0.246E+00  0.819E-01  0.819E-01  0.819E-01
  11.156  0.236E+00  0.786E-01  0.786E-01  0.786E-01
  11.166  0.226E+00  0.753E-01  0.753E-01  0.753E-01
  11.176  0.216E+00  0.720E-01  0.720E-01  0.720E-01
  11.186  0.206E+00  0.687E-01  0.687E-01  0.687E-01
  11.196  0.196E+00  0.654E-01  0.654E-01  0.654E-01
  11.206  0.186E+00  0.621E-01  0.621E-01  0.621E-01
  11.216  0.177E+00  0.589E-01  0.589E-01  0.589E-01
  11.226  0.168E+00  0.559E-01  0.559E-01  0.559E-01
  11.236  0.159E+00  0.529E-01  0.529E-01  0.529E-01
  11.246  0.150E+00  0.501E-01  0.501E-01  0.501E-01
  11.256  0.143E+00  0.476E-01  0.476E-01  0.476E-01
  11.266  0.135E+00  0.452E-01  0.452E-01  0.452E-01
  11.276  0.129E+00  0.430E-01  0.430E-01  0.430E-01
  11.286  0.123E+00  0.411E-01  0.411E-01  0.411E-01
  11.296  0.118E+00  0.394E-01  0.394E-01  0.394E-01
  11.306  0.114E+00  0.380E-01  0.380E-01  0.380E-01
  11.316  0.111E+00  0.369E-01  0.369E-01  0.369E-01
  11.326  0.108E+00  0.360E-01  0.360E-01  0.360E-01
  11.336  0.106E+00  0.353E-01  0.353E-01  0.353E-01
  11.346  0.105E+00  0.349E-01  0.349E-01  0.349E-01
  11.356  0.104E+00  0.347E-01  0.347E-01  0.347E-01
  11.366  0.104E+00  0.347E-01  0.347E-01  0.347E-01
  11.376  0.105E+00  0.348E-01  0.348E-01  0.348E-01
  11.386  0.105E+00  0.352E-01  0.352E-01  0.352E-01
  11.396  0.107E+00  0.356E-01  0.356E-01  0.356E-01
  11.406  0.108E+00  0.362E-01  0.362E-01  0.362E-01
  11.416  0.111E+00  0.368E-01  0.368E-01  0.368E-01
  11.426  0.113E+00  0.376E-01  0.376E-01  0.376E-01
  11.436  0.115E+00  0.385E-01  0.385E-01  0.385E-01
  11.446  0.118E+00  0.394E-01  0.394E-01  0.394E-01
  11.456  0.121E+00  0.404E-01  0.404E-01  0.404E-01
  11.466  0.125E+00  0.416E-01  0.416E-01  0.416E-01
  11.476  0.128E+00  0.428E-01  0.428E-01  0.428E-01
  11.486  0.132E+00  0.441E-01  0.441E-01  0.441E-01
  11.496  0.136E+00  0.455E-01  0.455E-01  0.455E-01
  11.506  0.141E+00  0.470E-01  0.470E-01  0.470E-01
  11.516  0.146E+00  0.486E-01  0.486E-01  0.486E-01
  11.526  0.151E+00  0.504E-01  0.504E-01  0.504E-01
  11.536  0.157E+00  0.523E-01  0.523E-01  0.523E-01
  11.546  0.163E+00  0.543E-01  0.543E-01  0.543E-01
  11.556  0.170E+00  0.566E-01  0.566E-01  0.566E-01
  11.566  0.177E+00  0.589E-01  0.589E-01  0.589E-01
  11.576  0.184E+00  0.615E-01  0.615E-01  0.615E-01
  11.586  0.192E+00  0.642E-01  0.642E-01  0.642E-01
  11.596  0.201E+00  0.670E-01  0.670E-01  0.670E-01
  11.606  0.210E+00  0.699E-01  0.699E-01  0.699E-01
  11.616  0.219E+00  0.729E-01  0.729E-01  0.729E-01
  11.626  0.228E+00  0.760E-01  0.760E-01  0.760E-01
  11.636  0.237E+00  0.790E-01  0.790E-01  0.790E-01
  11.646  0.246E+00  0.820E-01  0.820E-01  0.820E-01
  11.656  0.255E+00  0.849E-01  0.849E-01  0.849E-01
  11.666  0.263E+00  0.876E-01  0.876E-01  0.876E-01
  11.676  0.270E+00  0.900E-01  0.900E-01  0.900E-01
  11.686  0.276E+00  0.921E-01  0.921E-01  0.921E-01
  11.696  0.282E+00  0.939E-01  0.939E-01  0.939E-01
  11.706  0.285E+00  0.951E-01  0.951E-01  0.951E-01
  11.716  0.288E+00  0.959E-01  0.959E-01  0.959E-01
  11.726  0.288E+00  0.961E-01  0.961E-01  0.961E-01
  11.736  0.287E+00  0.958E-01  0.958E-01  0.958E-01
  11.746  0.285E+00  0.949E-01  0.949E-01  0.949E-01
  11.756  0.281E+00  0.935E-01  0.935E-01  0.935E-01
  11.766  0.275E+00  0.916E-01  0.916E-01  0.916E-01
  11.776  0.268E+00  0.892E-01  0.892E-01  0.892E-01
  11.786  0.259E+00  0.865E-01  0.865E-01  0.865E-01
  11.796  0.250E+00  0.834E-01  0.834E-01  0.834E-01
  11.806  0.240E+00  0.801E-01  0.801E-01  0.801E-01
  11.816  0.230E+00  0.767E-01  0.767E-01  0.767E-01
  11.826  0.220E+00  0.733E-01  0.733E-01  0.733E-01
  11.836  0.210E+00  0.700E-01  0.700E-01  0.700E-01
  11.846  0.200E+00  0.668E-01  0.668E-01  0.668E-01
  11.856  0.192E+00  0.638E-01  0.638E-01  0.638E-01
  11.866  0.184E+00  0.612E-01  0.612E-01  0.612E-01
  11.876  0.177E+00  0.589E-01  0.589E-01  0.589E-01
  11.886  0.171E+00  0.570E-01  0.570E-01  0.570E-01
  11.896  0.167E+00  0.556E-01  0.556E-01  0.556E-01
  11.906  0.164E+00  0.545E-01  0.545E-01  0.545E-01
  11.916  0.162E+00  0.539E-01  0.539E-01  0.539E-01
  11.926  0.161E+00  0.536E-01  0.536E-01  0.536E-01
  11.936  0.161E+00  0.536E-01  0.536E-01  0.536E-01
  11.946  0.162E+00  0.540E-01  0.540E-01  0.540E-01
  11.956  0.164E+00  0.546E-01  0.546E-01  0.546E-01
  11.966  0.166E+00  0.554E-01  0.554E-01  0.554E-01
  11.976  0.169E+00  0.563E-01  0.563E-01  0.563E-01
  11.986  0.172E+00  0.572E-01  0.572E-01  0.572E-01
  11.996  0.175E+00  0.582E-01  0.582E-01  0.582E-01
  12.006  0.177E+00  0.591E-01  0.591E-01  0.591E-01
  12.016  0.180E+00  0.599E-01  0.599E-01  0.599E-01
  12.026  0.182E+00  0.606E-01  0.606E-01  0.606E-01
  12.036  0.183E+00  0.611E-01  0.611E-01  0.611E-01
  12.046  0.184E+00  0.614E-01  0.614E-01  0.614E-01
  12.056  0.185E+00  0.616E-01  0.616E-01  0.616E-01
  12.066  0.184E+00  0.615E-01  0.615E-01  0.615E-01
  12.076  0.184E+00  0.612E-01  0.612E-01  0.612E-01
  12.086  0.182E+00  0.607E-01  0.607E-01  0.607E-01
  12.096  0.180E+00  0.601E-01  0.601E-01  0.601E-01
  12.106  0.178E+00  0.594E-01  0.594E-01  0.594E-01
  12.116  0.176E+00  0.586E-01  0.586E-01  0.586E-01
  12.126  0.173E+00  0.578E-01  0.578E-01  0.578E-01
  12.136  0.171E+00  0.570E-01  0.570E-01  0.570E-01
  12.146  0.169E+00  0.563E-01  0.563E-01  0.563E-01
  12.156  0.167E+00  0.557E-01  0.557E-01  0.557E-01
  12.166  0.166E+00  0.552E-01  0.552E-01  0.552E-01
  12.176  0.165E+00  0.550E-01  0.550E-01  0.550E-01
  12.186  0.165E+00  0.550E-01  0.550E-01  0.550E-01
  12.196  0.166E+00  0.553E-01  0.553E-01  0.553E-01
  12.206  0.168E+00  0.559E-01  0.559E-01  0.559E-01
  12.216  0.170E+00  0.568E-01  0.568E-01  0.568E-01
  12.226  0.174E+00  0.581E-01  0.581E-01  0.581E-01
  12.236  0.179E+00  0.596E-01  0.596E-01  0.596E-01
  12.246  0.184E+00  0.615E-01  0.615E-01  0.615E-01
  12.256  0.191E+00  0.636E-01  0.636E-01  0.636E-01
  12.266  0.198E+00  0.661E-01  0.661E-01  0.661E-01
  12.276  0.206E+00  0.687E-01  0.687E-01  0.687E-01
  12.286  0.215E+00  0.715E-01  0.715E-01  0.715E-01
  12.296  0.223E+00  0.745E-01  0.745E-01  0.745E-01
  12.306  0.233E+00  0.775E-01  0.775E-01  0.775E-01
  12.316  0.242E+00  0.806E-01  0.806E-01  0.806E-01
  12.326  0.251E+00  0.836E-01  0.836E-01  0.836E-01
  12.336  0.260E+00  0.865E-01  0.865E-01  0.865E-01
  12.346  0.268E+00  0.893E-01  0.893E-01  0.893E-01
  12.356  0.276E+00  0.919E-01  0.919E-01  0.919E-01
  12.366  0.283E+00  0.943E-01  0.943E-01  0.943E-01
  12.376  0.289E+00  0.964E-01  0.964E-01  0.964E-01
  12.386  0.294E+00  0.982E-01  0.982E-01  0.982E-01
  12.396  0.299E+00  0.996E-01  0.996E-01  0.996E-01
  12.406  0.302E+00  0.101E+00  0.101E+00  0.101E+00
  12.416  0.305E+00  0.102E+00  0.102E+00  0.102E+00
  12.426  0.306E+00  0.102E+00  0.102E+00  0.102E+00
  12.436  0.306E+00  0.102E+00  0.102E+00  0.102E+00
  12.446  0.305E+00  0.102E+00  0.102E+00  0.102E+00
  12.456  0.304E+00  0.101E+00  0.101E+00  0.101E+00
  12.466  0.301E+00  0.100E+00  0.100E+00  0.100E+00
  12.476  0.297E+00  0.990E-01  0.990E-01  0.990E-01
  12.486  0.292E+00  0.974E-01  0.974E-01  0.974E-01
  12.496  0.287E+00  0.955E-01  0.955E-01  0.955E-01
  12.506  0.280E+00  0.933E-01  0.933E-01  0.933E-01
  12.516  0.273E+00  0.909E-01  0.909E-01  0.909E-01
  12.526  0.264E+00  0.881E-01  0.881E-01  0.881E-01
  12.536  0.256E+00  0.852E-01  0.852E-01  0.852E-01
  12.546  0.246E+00  0.820E-01  0.820E-01  0.820E-01
  12.556  0.236E+00  0.786E-01  0.786E-01  0.786E-01
  12.566  0.225E+00  0.751E-01  0.751E-01  0.751E-01
  12.576  0.214E+00  0.714E-01  0.714E-01  0.714E-01
  12.586  0.203E+00  0.676E-01  0.676E-01  0.676E-01
  12.596  0.191E+00  0.638E-01  0.638E-01  0.638E-01
  12.606  0.180E+00  0.600E-01  0.600E-01  0.600E-01
  12.616  0.169E+00  0.562E-01  0.562E-01  0.562E-01
  12.626  0.157E+00  0.524E-01  0.524E-01  0.524E-01
  12.636  0.146E+00  0.488E-01  0.488E-01  0.488E-01
  12.646  0.136E+00  0.453E-01  0.453E-01  0.453E-01
  12.656  0.126E+00  0.419E-01  0.419E-01  0.419E-01
  12.666  0.116E+00  0.388E-01  0.388E-01  0.388E-01
  12.676  0.108E+00  0.359E-01  0.359E-01  0.359E-01
  12.686  0.995E-01  0.332E-01  0.332E-01  0.332E-01
  12.696  0.923E-01  0.308E-01  0.308E-01  0.308E-01
  12.706  0.859E-01  0.286E-01  0.286E-01  0.286E-01
  12.716  0.803E-01  0.268E-01  0.268E-01  0.268E-01
  12.726  0.757E-01  0.252E-01  0.252E-01  0.252E-01
  12.736  0.721E-01  0.240E-01  0.240E-01  0.240E-01
  12.746  0.694E-01  0.231E-01  0.231E-01  0.231E-01
  12.756  0.677E-01  0.226E-01  0.226E-01  0.226E-01
  12.766  0.671E-01  0.224E-01  0.224E-01  0.224E-01
  12.776  0.674E-01  0.225E-01  0.225E-01  0.225E-01
  12.786  0.687E-01  0.229E-01  0.229E-01  0.229E-01
  12.796  0.710E-01  0.237E-01  0.237E-01  0.237E-01
  12.806  0.742E-01  0.247E-01  0.247E-01  0.247E-01
  12.816  0.785E-01  0.262E-01  0.262E-01  0.262E-01
  12.826  0.836E-01  0.279E-01  0.279E-01  0.279E-01
  12.836  0.896E-01  0.299E-01  0.299E-01  0.299E-01
  12.846  0.964E-01  0.321E-01  0.321E-01  0.321E-01
  12.856  0.104E+00  0.347E-01  0.347E-01  0.347E-01
  12.866  0.112E+00  0.374E-01  0.374E-01  0.374E-01
  12.876  0.121E+00  0.404E-01  0.404E-01  0.404E-01
  12.886  0.130E+00  0.435E-01  0.435E-01  0.435E-01
  12.896  0.140E+00  0.467E-01  0.467E-01  0.467E-01
  12.906  0.150E+00  0.500E-01  0.500E-01  0.500E-01
  12.916  0.160E+00  0.534E-01  0.534E-01  0.534E-01
  12.926  0.170E+00  0.568E-01  0.568E-01  0.568E-01
  12.936  0.180E+00  0.601E-01  0.601E-01  0.601E-01
  12.946  0.190E+00  0.634E-01  0.634E-01  0.634E-01
  12.956  0.200E+00  0.665E-01  0.665E-01  0.665E-01
  12.966  0.209E+00  0.695E-01  0.695E-01  0.695E-01
  12.976  0.217E+00  0.723E-01  0.723E-01  0.723E-01
  12.986  0.225E+00  0.749E-01  0.749E-01  0.749E-01
  12.996  0.232E+00  0.772E-01  0.772E-01  0.772E-01
  13.006  0.238E+00  0.793E-01  0.793E-01  0.793E-01
  13.016  0.243E+00  0.810E-01  0.810E-01  0.810E-01
  13.026  0.247E+00  0.825E-01  0.825E-01  0.825E-01
  13.036  0.251E+00  0.836E-01  0.836E-01  0.836E-01
  13.046  0.254E+00  0.845E-01  0.845E-01  0.845E-01
  13.056  0.255E+00  0.851E-01  0.851E-01  0.851E-01
  13.066  0.256E+00  0.854E-01  0.854E-01  0.854E-01
  13.076  0.256E+00  0.854E-01  0.854E-01  0.854E-01
  13.086  0.256E+00  0.853E-01  0.853E-01  0.853E-01
  13.096  0.255E+00  0.849E-01  0.849E-01  0.849E-01
  13.106  0.253E+00  0.843E-01  0.843E-01  0.843E-01
  13.116  0.251E+00  0.836E-01  0.836E-01  0.836E-01
  13.126  0.248E+00  0.827E-01  0.827E-01  0.827E-01
  13.136  0.245E+00  0.818E-01  0.818E-01  0.818E-01
  13.146  0.242E+00  0.807E-01  0.807E-01  0.807E-01
  13.156  0.239E+00  0.795E-01  0.795E-01  0.795E-01
  13.166  0.235E+00  0.783E-01  0.783E-01  0.783E-01
  13.176  0.231E+00  0.770E-01  0.770E-01  0.770E-01
  13.186  0.227E+00  0.756E-01  0.756E-01  0.756E-01
  13.196  0.222E+00  0.741E-01  0.741E-01  0.741E-01
  13.206  0.218E+00  0.726E-01  0.726E-01  0.726E-01
  13.216  0.213E+00  0.709E-01  0.709E-01  0.709E-01
  13.226  0.208E+00  0.692E-01  0.692E-01  0.692E-01
  13.236  0.202E+00  0.673E-01  0.673E-01  0.673E-01
  13.246  0.196E+00  0.653E-01  0.653E-01  0.653E-01
  13.256  0.190E+00  0.633E-01  0.633E-01  0.633E-01
  13.266  0.183E+00  0.611E-01  0.611E-01  0.611E-01
  13.276  0.177E+00  0.589E-01  0.589E-01  0.589E-01
  13.286  0.170E+00  0.566E-01  0.566E-01  0.566E-01
  13.296  0.163E+00  0.543E-01  0.543E-01  0.543E-01
  13.306  0.156E+00  0.520E-01  0.520E-01  0.520E-01
  13.316  0.149E+00  0.497E-01  0.497E-01  0.497E-01
  13.326  0.143E+00  0.475E-01  0.475E-01  0.475E-01
  13.336  0.137E+00  0.455E-01  0.455E-01  0.455E-01
  13.346  0.131E+00  0.436E-01  0.436E-01  0.436E-01
  13.356  0.126E+00  0.420E-01  0.420E-01  0.420E-01
  13.366  0.122E+00  0.405E-01  0.405E-01  0.405E-01
  13.376  0.118E+00  0.393E-01  0.393E-01  0.393E-01
  13.386  0.115E+00  0.384E-01  0.384E-01  0.384E-01
  13.396  0.113E+00  0.378E-01  0.378E-01  0.378E-01
  13.406  0.112E+00  0.374E-01  0.374E-01  0.374E-01
  13.416  0.112E+00  0.374E-01  0.374E-01  0.374E-01
  13.426  0.113E+00  0.376E-01  0.376E-01  0.376E-01
  13.436  0.114E+00  0.381E-01  0.381E-01  0.381E-01
  13.446  0.116E+00  0.388E-01  0.388E-01  0.388E-01
  13.456  0.119E+00  0.398E-01  0.398E-01  0.398E-01
  13.466  0.123E+00  0.409E-01  0.409E-01  0.409E-01
  13.476  0.127E+00  0.422E-01  0.422E-01  0.422E-01
  13.486  0.131E+00  0.437E-01  0.437E-01  0.437E-01
  13.496  0.136E+00  0.452E-01  0.452E-01  0.452E-01
  13.506  0.140E+00  0.468E-01  0.468E-01  0.468E-01
  13.516  0.145E+00  0.484E-01  0.484E-01  0.484E-01
  13.526  0.150E+00  0.500E-01  0.500E-01  0.500E-01
  13.536  0.155E+00  0.516E-01  0.516E-01  0.516E-01
  13.546  0.159E+00  0.532E-01  0.532E-01  0.532E-01
  13.556  0.164E+00  0.547E-01  0.547E-01  0.547E-01
  13.566  0.169E+00  0.562E-01  0.562E-01  0.562E-01
  13.576  0.173E+00  0.577E-01  0.577E-01  0.577E-01
  13.586  0.177E+00  0.591E-01  0.591E-01  0.591E-01
  13.596  0.182E+00  0.606E-01  0.606E-01  0.606E-01
  13.606  0.186E+00  0.621E-01  0.621E-01  0.621E-01
  13.616  0.191E+00  0.636E-01  0.636E-01  0.636E-01
  13.626  0.196E+00  0.652E-01  0.652E-01  0.652E-01
  13.636  0.200E+00  0.668E-01  0.668E-01  0.668E-01
  13.646  0.206E+00  0.685E-01  0.685E-01  0.685E-01
  13.656  0.211E+00  0.703E-01  0.703E-01  0.703E-01
  13.666  0.217E+00  0.722E-01  0.722E-01  0.722E-01
  13.676  0.222E+00  0.741E-01  0.741E-01  0.741E-01
  13.686  0.228E+00  0.761E-01  0.761E-01  0.761E-01
  13.696  0.234E+00  0.781E-01  0.781E-01  0.781E-01
  13.706  0.240E+00  0.801E-01  0.801E-01  0.801E-01
  13.716  0.246E+00  0.821E-01  0.821E-01  0.821E-01
  13.726  0.252E+00  0.840E-01  0.840E-01  0.840E-01
  13.736  0.257E+00  0.858E-01  0.858E-01  0.858E-01
  13.746  0.262E+00  0.874E-01  0.874E-01  0.874E-01
  13.756  0.267E+00  0.889E-01  0.889E-01  0.889E-01
  13.766  0.270E+00  0.901E-01  0.901E-01  0.901E-01
  13.776  0.273E+00  0.910E-01  0.910E-01  0.910E-01
  13.786  0.275E+00  0.917E-01  0.917E-01  0.917E-01
  13.796  0.276E+00  0.920E-01  0.920E-01  0.920E-01
  13.806  0.276E+00  0.920E-01  0.920E-01  0.920E-01
  13.816  0.275E+00  0.916E-01  0.916E-01  0.916E-01
  13.826  0.273E+00  0.909E-01  0.909E-01  0.909E-01
  13.836  0.269E+00  0.898E-01  0.898E-01  0.898E-01
  13.846  0.265E+00  0.884E-01  0.884E-01  0.884E-01
  13.856  0.260E+00  0.866E-01  0.866E-01  0.866E-01
  13.866  0.254E+00  0.846E-01  0.846E-01  0.846E-01
  13.876  0.247E+00  0.822E-01  0.822E-01  0.822E-01
  13.886  0.239E+00  0.796E-01  0.796E-01  0.796E-01
  13.896  0.230E+00  0.768E-01  0.768E-01  0.768E-01
  13.906  0.222E+00  0.739E-01  0.739E-01  0.739E-01
  13.916  0.212E+00  0.708E-01  0.708E-01  0.708E-01
  13.926  0.203E+00  0.676E-01  0.676E-01  0.676E-01
  13.936  0.193E+00  0.645E-01  0.645E-01  0.645E-01
  13.946  0.184E+00  0.614E-01  0.614E-01  0.614E-01
  13.956  0.175E+00  0.584E-01  0.584E-01  0.584E-01
  13.966  0.167E+00  0.556E-01  0.556E-01  0.556E-01
  13.976  0.159E+00  0.530E-01  0.530E-01  0.530E-01
  13.986  0.152E+00  0.507E-01  0.507E-01  0.507E-01
  13.996  0.146E+00  0.487E-01  0.487E-01  0.487E-01
  14.006  0.141E+00  0.471E-01  0.471E-01  0.471E-01
  14.016  0.138E+00  0.458E-01  0.458E-01  0.458E-01
  14.026  0.135E+00  0.450E-01  0.450E-01  0.450E-01
  14.036  0.134E+00  0.447E-01  0.447E-01  0.447E-01
  14.046  0.134E+00  0.448E-01  0.448E-01  0.448E-01
  14.056  0.136E+00  0.453E-01  0.453E-01  0.453E-01
  14.066  0.139E+00  0.463E-01  0.463E-01  0.463E-01
  14.076  0.143E+00  0.477E-01  0.477E-01  0.477E-01
  14.086  0.149E+00  0.495E-01  0.495E-01  0.495E-01
  14.096  0.155E+00  0.517E-01  0.517E-01  0.517E-01
  14.106  0.163E+00  0.542E-01  0.542E-01  0.542E-01
  14.116  0.171E+00  0.571E-01  0.571E-01  0.571E-01
  14.126  0.181E+00  0.602E-01  0.602E-01  0.602E-01
  14.136  0.191E+00  0.636E-01  0.636E-01  0.636E-01
  14.146  0.201E+00  0.671E-01  0.671E-01  0.671E-01
  14.156  0.213E+00  0.709E-01  0.709E-01  0.709E-01
  14.166  0.224E+00  0.747E-01  0.747E-01  0.747E-01
  14.176  0.236E+00  0.786E-01  0.786E-01  0.786E-01
  14.186  0.248E+00  0.826E-01  0.826E-01  0.826E-01
  14.196  0.259E+00  0.864E-01  0.864E-01  0.864E-01
  14.206  0.271E+00  0.902E-01  0.902E-01  0.902E-01
  14.216  0.282E+00  0.938E-01  0.938E-01  0.938E-01
  14.226  0.292E+00  0.972E-01  0.972E-01  0.972E-01
  14.236  0.301E+00  0.100E+00  0.100E+00  0.100E+00
  14.246  0.309E+00  0.103E+00  0.103E+00  0.103E+00
  14.256  0.316E+00  0.105E+00  0.105E+00  0.105E+00
  14.266  0.322E+00  0.107E+00  0.107E+00  0.107E+00
  14.276  0.326E+00  0.109E+00  0.109E+00  0.109E+00
  14.286  0.328E+00  0.109E+00  0.109E+00  0.109E+00
  14.296  0.329E+00  0.110E+00  0.110E+00  0.110E+00
  14.306  0.327E+00  0.109E+00  0.109E+00  0.109E+00
  14.316  0.325E+00  0.108E+00  0.108E+00  0.108E+00
  14.326  0.320E+00  0.107E+00  0.107E+00  0.107E+00
  14.336  0.314E+00  0.105E+00  0.105E+00  0.105E+00
  14.346  0.307E+00  0.102E+00  0.102E+00  0.102E+00
  14.356  0.299E+00  0.996E-01  0.996E-01  0.996E-01
  14.366  0.290E+00  0.965E-01  0.965E-01  0.965E-01
  14.376  0.280E+00  0.933E-01  0.933E-01  0.933E-01
  14.386  0.270E+00  0.899E-01  0.899E-01  0.899E-01
  14.396  0.259E+00  0.864E-01  0.864E-01  0.864E-01
  14.406  0.249E+00  0.830E-01  0.830E-01  0.830E-01
  14.416  0.239E+00  0.797E-01  0.797E-01  0.797E-01
  14.426  0.230E+00  0.766E-01  0.766E-01  0.766E-01
  14.436  0.221E+00  0.736E-01  0.736E-01  0.736E-01
  14.446  0.213E+00  0.709E-01  0.709E-01  0.709E-01
  14.456  0.205E+00  0.685E-01  0.685E-01  0.685E-01
  14.466  0.199E+00  0.663E-01  0.663E-01  0.663E-01
  14.476  0.193E+00  0.644E-01  0.644E-01  0.644E-01
  14.486  0.188E+00  0.628E-01  0.628E-01  0.628E-01
  14.496  0.184E+00  0.614E-01  0.614E-01  0.614E-01
  14.506  0.181E+00  0.602E-01  0.602E-01  0.602E-01
  14.516  0.178E+00  0.593E-01  0.593E-01  0.593E-01
  14.526  0.175E+00  0.584E-01  0.584E-01  0.584E-01
  14.536  0.173E+00  0.578E-01  0.578E-01  0.578E-01
  14.546  0.171E+00  0.572E-01  0.572E-01  0.572E-01
  14.556  0.170E+00  0.566E-01  0.566E-01  0.566E-01
  14.566  0.168E+00  0.561E-01  0.561E-01  0.561E-01
  14.576  0.167E+00  0.556E-01  0.556E-01  0.556E-01
  14.586  0.165E+00  0.550E-01  0.550E-01  0.550E-01
  14.596  0.163E+00  0.544E-01  0.544E-01  0.544E-01
  14.606  0.161E+00  0.536E-01  0.536E-01  0.536E-01
  14.616  0.158E+00  0.528E-01  0.528E-01  0.528E-01
  14.626  0.155E+00  0.518E-01  0.518E-01  0.518E-01
  14.636  0.152E+00  0.507E-01  0.507E-01  0.507E-01
  14.646  0.148E+00  0.494E-01  0.494E-01  0.494E-01
  14.656  0.144E+00  0.480E-01  0.480E-01  0.480E-01
  14.666  0.139E+00  0.464E-01  0.464E-01  0.464E-01
  14.676  0.134E+00  0.446E-01  0.446E-01  0.446E-01
  14.686  0.128E+00  0.428E-01  0.428E-01  0.428E-01
  14.696  0.123E+00  0.409E-01  0.409E-01  0.409E-01
  14.706  0.117E+00  0.389E-01  0.389E-01  0.389E-01
  14.716  0.111E+00  0.369E-01  0.369E-01  0.369E-01
  14.726  0.105E+00  0.348E-01  0.348E-01  0.348E-01
  14.736  0.987E-01  0.329E-01  0.329E-01  0.329E-01
  14.746  0.932E-01  0.311E-01  0.311E-01  0.311E-01
  14.756  0.880E-01  0.293E-01  0.293E-01  0.293E-01
  14.766  0.834E-01  0.278E-01  0.278E-01  0.278E-01
  14.776  0.794E-01  0.265E-01  0.265E-01  0.265E-01
  14.786  0.761E-01  0.254E-01  0.254E-01  0.254E-01
  14.796  0.735E-01  0.245E-01  0.245E-01  0.245E-01
  14.806  0.717E-01  0.239E-01  0.239E-01  0.239E-01
  14.816  0.707E-01  0.236E-01  0.236E-01  0.236E-01
  14.826  0.705E-01  0.235E-01  0.235E-01  0.235E-01
  14.836  0.711E-01  0.237E-01  0.237E-01  0.237E-01
  14.846  0.724E-01  0.241E-01  0.241E-01  0.241E-01
  14.856  0.744E-01  0.248E-01  0.248E-01  0.248E-01
  14.866  0.769E-01  0.256E-01  0.256E-01  0.256E-01
  14.876  0.800E-01  0.267E-01  0.267E-01  0.267E-01
  14.886  0.836E-01  0.279E-01  0.279E-01  0.279E-01
  14.896  0.875E-01  0.292E-01  0.292E-01  0.292E-01
  14.906  0.917E-01  0.306E-01  0.306E-01  0.306E-01
  14.916  0.962E-01  0.321E-01  0.321E-01  0.321E-01
  14.926  0.101E+00  0.336E-01  0.336E-01  0.336E-01
  14.936  0.106E+00  0.352E-01  0.352E-01  0.352E-01
  14.946  0.111E+00  0.369E-01  0.369E-01  0.369E-01
  14.956  0.116E+00  0.387E-01  0.387E-01  0.387E-01
  14.966  0.121E+00  0.405E-01  0.405E-01  0.405E-01
  14.976  0.127E+00  0.423E-01  0.423E-01  0.423E-01
  14.986  0.133E+00  0.442E-01  0.442E-01  0.442E-01
  14.996  0.139E+00  0.462E-01  0.462E-01  0.462E-01
  15.006  0.145E+00  0.483E-01  0.483E-01  0.483E-01
  15.016  0.151E+00  0.505E-01  0.505E-01  0.505E-01
  15.026  0.158E+00  0.527E-01  0.527E-01  0.527E-01
  15.036  0.165E+00  0.549E-01  0.549E-01  0.549E-01
  15.046  0.172E+00  0.572E-01  0.572E-01  0.572E-01
  15.056  0.178E+00  0.594E-01  0.594E-01  0.594E-01
  15.066  0.185E+00  0.617E-01  0.617E-01  0.617E-01
  15.076  0.192E+00  0.638E-01  0.638E-01  0.638E-01
  15.086  0.198E+00  0.659E-01  0.659E-01  0.659E-01
  15.096  0.203E+00  0.678E-01  0.678E-01  0.678E-01
  15.106  0.208E+00  0.695E-01  0.695E-01  0.695E-01
  15.116  0.213E+00  0.709E-01  0.709E-01  0.709E-01
  15.126  0.216E+00  0.722E-01  0.722E-01  0.722E-01
  15.136  0.219E+00  0.731E-01  0.731E-01  0.731E-01
  15.146  0.221E+00  0.737E-01  0.737E-01  0.737E-01
  15.156  0.222E+00  0.740E-01  0.740E-01  0.740E-01
  15.166  0.222E+00  0.740E-01  0.740E-01  0.740E-01
  15.176  0.221E+00  0.736E-01  0.736E-01  0.736E-01
  15.186  0.219E+00  0.729E-01  0.729E-01  0.729E-01
  15.196  0.216E+00  0.720E-01  0.720E-01  0.720E-01
  15.206  0.212E+00  0.708E-01  0.708E-01  0.708E-01
  15.216  0.208E+00  0.693E-01  0.693E-01  0.693E-01
  15.226  0.203E+00  0.677E-01  0.677E-01  0.677E-01
  15.236  0.198E+00  0.659E-01  0.659E-01  0.659E-01
  15.246  0.192E+00  0.640E-01  0.640E-01  0.640E-01
  15.256  0.186E+00  0.620E-01  0.620E-01  0.620E-01
  15.266  0.180E+00  0.600E-01  0.600E-01  0.600E-01
  15.276  0.174E+00  0.580E-01  0.580E-01  0.580E-01
  15.286  0.168E+00  0.560E-01  0.560E-01  0.560E-01
  15.296  0.162E+00  0.541E-01  0.541E-01  0.541E-01
  15.306  0.157E+00  0.524E-01  0.524E-01  0.524E-01
  15.316  0.152E+00  0.508E-01  0.508E-01  0.508E-01
  15.326  0.148E+00  0.494E-01  0.494E-01  0.494E-01
  15.336  0.145E+00  0.482E-01  0.482E-01  0.482E-01
  15.346  0.142E+00  0.472E-01  0.472E-01  0.472E-01
  15.356  0.139E+00  0.465E-01  0.465E-01  0.465E-01
  15.366  0.138E+00  0.459E-01  0.459E-01  0.459E-01
  15.376  0.137E+00  0.456E-01  0.456E-01  0.456E-01
  15.386  0.136E+00  0.455E-01  0.455E-01  0.455E-01
  15.396  0.137E+00  0.456E-01  0.456E-01  0.456E-01
  15.406  0.138E+00  0.459E-01  0.459E-01  0.459E-01
  15.416  0.139E+00  0.464E-01  0.464E-01  0.464E-01
  15.426  0.141E+00  0.471E-01  0.471E-01  0.471E-01
  15.436  0.144E+00  0.479E-01  0.479E-01  0.479E-01
  15.446  0.147E+00  0.488E-01  0.488E-01  0.488E-01
  15.456  0.150E+00  0.499E-01  0.499E-01  0.499E-01
  15.466  0.153E+00  0.511E-01  0.511E-01  0.511E-01
  15.476  0.157E+00  0.524E-01  0.524E-01  0.524E-01
  15.486  0.161E+00  0.537E-01  0.537E-01  0.537E-01
  15.496  0.165E+00  0.551E-01  0.551E-01  0.551E-01
  15.506  0.169E+00  0.565E-01  0.565E-01  0.565E-01
  15.516  0.173E+00  0.578E-01  0.578E-01  0.578E-01
  15.526  0.177E+00  0.591E-01  0.591E-01  0.591E-01
  15.536  0.181E+00  0.604E-01  0.604E-01  0.604E-01
  15.546  0.184E+00  0.615E-01  0.615E-01  0.615E-01
  15.556  0.187E+00  0.624E-01  0.624E-01  0.624E-01
  15.566  0.190E+00  0.632E-01  0.632E-01  0.632E-01
  15.576  0.191E+00  0.638E-01  0.638E-01  0.638E-01
  15.586  0.192E+00  0.641E-01  0.641E-01  0.641E-01
  15.596  0.192E+00  0.642E-01  0.642E-01  0.642E-01
  15.606  0.192E+00  0.640E-01  0.640E-01  0.640E-01
  15.616  0.191E+00  0.635E-01  0.635E-01  0.635E-01
  15.626  0.188E+00  0.628E-01  0.628E-01  0.628E-01
  15.636  0.186E+00  0.619E-01  0.619E-01  0.619E-01
  15.646  0.182E+00  0.607E-01  0.607E-01  0.607E-01
  15.656  0.178E+00  0.593E-01  0.593E-01  0.593E-01
  15.666  0.173E+00  0.577E-01  0.577E-01  0.577E-01
  15.676  0.168E+00  0.561E-01  0.561E-01  0.561E-01
  15.686  0.163E+00  0.543E-01  0.543E-01  0.543E-01
  15.696  0.158E+00  0.525E-01  0.525E-01  0.525E-01
  15.706  0.152E+00  0.507E-01  0.507E-01  0.507E-01
  15.716  0.147E+00  0.490E-01  0.490E-01  0.490E-01
  15.726  0.142E+00  0.473E-01  0.473E-01  0.473E-01
  15.736  0.137E+00  0.458E-01  0.458E-01  0.458E-01
  15.746  0.133E+00  0.444E-01  0.444E-01  0.444E-01
  15.756  0.129E+00  0.431E-01  0.431E-01  0.431E-01
  15.766  0.126E+00  0.421E-01  0.421E-01  0.421E-01
  15.776  0.124E+00  0.412E-01  0.412E-01  0.412E-01
  15.786  0.122E+00  0.406E-01  0.406E-01  0.406E-01
  15.796  0.120E+00  0.401E-01  0.401E-01  0.401E-01
  15.806  0.120E+00  0.398E-01  0.398E-01  0.398E-01
  15.816  0.119E+00  0.398E-01  0.398E-01  0.398E-01
  15.826  0.120E+00  0.399E-01  0.399E-01  0.399E-01
  15.836  0.120E+00  0.402E-01  0.402E-01  0.402E-01
  15.846  0.122E+00  0.406E-01  0.406E-01  0.406E-01
  15.856  0.123E+00  0.411E-01  0.411E-01  0.411E-01
  15.866  0.125E+00  0.417E-01  0.417E-01  0.417E-01
  15.876  0.127E+00  0.424E-01  0.424E-01  0.424E-01
  15.886  0.129E+00  0.432E-01  0.432E-01  0.432E-01
  15.896  0.132E+00  0.439E-01  0.439E-01  0.439E-01
  15.906  0.134E+00  0.446E-01  0.446E-01  0.446E-01
  15.916  0.136E+00  0.452E-01  0.452E-01  0.452E-01
  15.926  0.137E+00  0.458E-01  0.458E-01  0.458E-01
  15.936  0.139E+00  0.462E-01  0.462E-01  0.462E-01
  15.946  0.140E+00  0.466E-01  0.466E-01  0.466E-01
  15.956  0.140E+00  0.467E-01  0.467E-01  0.467E-01
  15.966  0.140E+00  0.468E-01  0.468E-01  0.468E-01
  15.976  0.140E+00  0.467E-01  0.467E-01  0.467E-01
  15.986  0.139E+00  0.464E-01  0.464E-01  0.464E-01
  15.996  0.138E+00  0.461E-01  0.461E-01  0.461E-01
  16.006  0.137E+00  0.456E-01  0.456E-01  0.456E-01
  16.016  0.135E+00  0.450E-01  0.450E-01  0.450E-01
  16.026  0.133E+00  0.444E-01  0.444E-01  0.444E-01
  16.036  0.131E+00  0.437E-01  0.437E-01  0.437E-01
  16.046  0.129E+00  0.430E-01  0.430E-01  0.430E-01
  16.056  0.127E+00  0.423E-01  0.423E-01  0.423E-01
  16.066  0.125E+00  0.416E-01  0.416E-01  0.416E-01
  16.076  0.123E+00  0.410E-01  0.410E-01  0.410E-01
  16.086  0.121E+00  0.404E-01  0.404E-01  0.404E-01
  16.096  0.120E+00  0.400E-01  0.400E-01  0.400E-01
  16.106  0.119E+00  0.396E-01  0.396E-01  0.396E-01
  16.116  0.118E+00  0.392E-01  0.392E-01  0.392E-01
  16.126  0.117E+00  0.390E-01  0.390E-01  0.390E-01
  16.136  0.116E+00  0.388E-01  0.388E-01  0.388E-01
  16.146  0.116E+00  0.387E-01  0.387E-01  0.387E-01
  16.156  0.116E+00  0.386E-01  0.386E-01  0.386E-01
  16.166  0.116E+00  0.386E-01  0.386E-01  0.386E-01
  16.176  0.116E+00  0.385E-01  0.385E-01  0.385E-01
  16.186  0.115E+00  0.384E-01  0.384E-01  0.384E-01
  16.196  0.115E+00  0.383E-01  0.383E-01  0.383E-01
  16.206  0.114E+00  0.381E-01  0.381E-01  0.381E-01
  16.216  0.114E+00  0.379E-01  0.379E-01  0.379E-01
  16.226  0.112E+00  0.375E-01  0.375E-01  0.375E-01
  16.236  0.111E+00  0.370E-01  0.370E-01  0.370E-01
  16.246  0.109E+00  0.364E-01  0.364E-01  0.364E-01
  16.256  0.107E+00  0.356E-01  0.356E-01  0.356E-01
  16.266  0.104E+00  0.347E-01  0.347E-01  0.347E-01
  16.276  0.101E+00  0.337E-01  0.337E-01  0.337E-01
  16.286  0.979E-01  0.326E-01  0.326E-01  0.326E-01
  16.296  0.943E-01  0.314E-01  0.314E-01  0.314E-01
  16.306  0.906E-01  0.302E-01  0.302E-01  0.302E-01
  16.316  0.868E-01  0.289E-01  0.289E-01  0.289E-01
  16.326  0.830E-01  0.277E-01  0.277E-01  0.277E-01
  16.336  0.793E-01  0.264E-01  0.264E-01  0.264E-01
  16.346  0.758E-01  0.253E-01  0.253E-01  0.253E-01
  16.356  0.726E-01  0.242E-01  0.242E-01  0.242E-01
  16.366  0.697E-01  0.232E-01  0.232E-01  0.232E-01
  16.376  0.674E-01  0.225E-01  0.225E-01  0.225E-01
  16.386  0.656E-01  0.219E-01  0.219E-01  0.219E-01
  16.396  0.645E-01  0.215E-01  0.215E-01  0.215E-01
  16.406  0.641E-01  0.214E-01  0.214E-01  0.214E-01
  16.416  0.644E-01  0.215E-01  0.215E-01  0.215E-01
  16.426  0.655E-01  0.218E-01  0.218E-01  0.218E-01
  16.436  0.674E-01  0.225E-01  0.225E-01  0.225E-01
  16.446  0.702E-01  0.234E-01  0.234E-01  0.234E-01
  16.456  0.737E-01  0.246E-01  0.246E-01  0.246E-01
  16.466  0.780E-01  0.260E-01  0.260E-01  0.260E-01
  16.476  0.830E-01  0.277E-01  0.277E-01  0.277E-01
  16.486  0.888E-01  0.296E-01  0.296E-01  0.296E-01
  16.496  0.951E-01  0.317E-01  0.317E-01  0.317E-01
  16.506  0.102E+00  0.340E-01  0.340E-01  0.340E-01
  16.516  0.109E+00  0.365E-01  0.365E-01  0.365E-01
  16.526  0.117E+00  0.390E-01  0.390E-01  0.390E-01
  16.536  0.125E+00  0.416E-01  0.416E-01  0.416E-01
  16.546  0.133E+00  0.443E-01  0.443E-01  0.443E-01
  16.556  0.141E+00  0.469E-01  0.469E-01  0.469E-01
  16.566  0.148E+00  0.495E-01  0.495E-01  0.495E-01
  16.576  0.156E+00  0.520E-01  0.520E-01  0.520E-01
  16.586  0.163E+00  0.543E-01  0.543E-01  0.543E-01
  16.596  0.169E+00  0.565E-01  0.565E-01  0.565E-01
  16.606  0.175E+00  0.584E-01  0.584E-01  0.584E-01
  16.616  0.181E+00  0.602E-01  0.602E-01  0.602E-01
  16.626  0.185E+00  0.617E-01  0.617E-01  0.617E-01
  16.636  0.189E+00  0.630E-01  0.630E-01  0.630E-01
  16.646  0.192E+00  0.641E-01  0.641E-01  0.641E-01
  16.656  0.195E+00  0.649E-01  0.649E-01  0.649E-01
  16.666  0.196E+00  0.654E-01  0.654E-01  0.654E-01
  16.676  0.197E+00  0.658E-01  0.658E-01  0.658E-01
  16.686  0.198E+00  0.659E-01  0.659E-01  0.659E-01
  16.696  0.198E+00  0.659E-01  0.659E-01  0.659E-01
  16.706  0.197E+00  0.657E-01  0.657E-01  0.657E-01
  16.716  0.196E+00  0.653E-01  0.653E-01  0.653E-01
  16.726  0.195E+00  0.648E-01  0.648E-01  0.648E-01
  16.736  0.193E+00  0.643E-01  0.643E-01  0.643E-01
  16.746  0.191E+00  0.636E-01  0.636E-01  0.636E-01
  16.756  0.189E+00  0.629E-01  0.629E-01  0.629E-01
  16.766  0.186E+00  0.621E-01  0.621E-01  0.621E-01
  16.776  0.184E+00  0.613E-01  0.613E-01  0.613E-01
  16.786  0.182E+00  0.605E-01  0.605E-01  0.605E-01
  16.796  0.179E+00  0.597E-01  0.597E-01  0.597E-01
  16.806  0.177E+00  0.590E-01  0.590E-01  0.590E-01
  16.816  0.175E+00  0.584E-01  0.584E-01  0.584E-01
  16.826  0.173E+00  0.578E-01  0.578E-01  0.578E-01
  16.836  0.172E+00  0.574E-01  0.574E-01  0.574E-01
  16.846  0.171E+00  0.571E-01  0.571E-01  0.571E-01
  16.856  0.171E+00  0.569E-01  0.569E-01  0.569E-01
  16.866  0.171E+00  0.570E-01  0.570E-01  0.570E-01
  16.876  0.172E+00  0.572E-01  0.572E-01  0.572E-01
  16.886  0.173E+00  0.576E-01  0.576E-01  0.576E-01
  16.896  0.175E+00  0.583E-01  0.583E-01  0.583E-01
  16.906  0.177E+00  0.592E-01  0.592E-01  0.592E-01
  16.916  0.181E+00  0.603E-01  0.603E-01  0.603E-01
  16.926  0.185E+00  0.616E-01  0.616E-01  0.616E-01
  16.936  0.189E+00  0.631E-01  0.631E-01  0.631E-01
  16.946  0.194E+00  0.648E-01  0.648E-01  0.648E-01
  16.956  0.200E+00  0.666E-01  0.666E-01  0.666E-01
  16.966  0.206E+00  0.686E-01  0.686E-01  0.686E-01
  16.976  0.212E+00  0.705E-01  0.705E-01  0.705E-01
  16.986  0.217E+00  0.725E-01  0.725E-01  0.725E-01
  16.996  0.223E+00  0.744E-01  0.744E-01  0.744E-01
  17.006  0.228E+00  0.761E-01  0.761E-01  0.761E-01
  17.016  0.233E+00  0.776E-01  0.776E-01  0.776E-01
  17.026  0.236E+00  0.788E-01  0.788E-01  0.788E-01
  17.036  0.239E+00  0.797E-01  0.797E-01  0.797E-01
  17.046  0.240E+00  0.801E-01  0.801E-01  0.801E-01
  17.056  0.240E+00  0.801E-01  0.801E-01  0.801E-01
  17.066  0.239E+00  0.796E-01  0.796E-01  0.796E-01
  17.076  0.236E+00  0.786E-01  0.786E-01  0.786E-01
  17.086  0.231E+00  0.771E-01  0.771E-01  0.771E-01
  17.096  0.225E+00  0.750E-01  0.750E-01  0.750E-01
  17.106  0.218E+00  0.725E-01  0.725E-01  0.725E-01
  17.116  0.209E+00  0.696E-01  0.696E-01  0.696E-01
  17.126  0.199E+00  0.663E-01  0.663E-01  0.663E-01
  17.136  0.188E+00  0.626E-01  0.626E-01  0.626E-01
  17.146  0.176E+00  0.587E-01  0.587E-01  0.587E-01
  17.156  0.164E+00  0.547E-01  0.547E-01  0.547E-01
  17.166  0.152E+00  0.505E-01  0.505E-01  0.505E-01
  17.176  0.139E+00  0.464E-01  0.464E-01  0.464E-01
  17.186  0.127E+00  0.422E-01  0.422E-01  0.422E-01
  17.196  0.115E+00  0.382E-01  0.382E-01  0.382E-01
  17.206  0.103E+00  0.343E-01  0.343E-01  0.343E-01
  17.216  0.919E-01  0.306E-01  0.306E-01  0.306E-01
  17.226  0.816E-01  0.272E-01  0.272E-01  0.272E-01
  17.236  0.720E-01  0.240E-01  0.240E-01  0.240E-01
  17.246  0.633E-01  0.211E-01  0.211E-01  0.211E-01
  17.256  0.555E-01  0.185E-01  0.185E-01  0.185E-01
  17.266  0.486E-01  0.162E-01  0.162E-01  0.162E-01
  17.276  0.425E-01  0.142E-01  0.142E-01  0.142E-01
  17.286  0.374E-01  0.125E-01  0.125E-01  0.125E-01
  17.296  0.332E-01  0.111E-01  0.111E-01  0.111E-01
  17.306  0.299E-01  0.996E-02  0.996E-02  0.996E-02
  17.316  0.275E-01  0.916E-02  0.916E-02  0.916E-02
  17.326  0.260E-01  0.865E-02  0.865E-02  0.865E-02
  17.336  0.254E-01  0.845E-02  0.845E-02  0.845E-02
  17.346  0.257E-01  0.856E-02  0.856E-02  0.856E-02
  17.356  0.270E-01  0.899E-02  0.899E-02  0.899E-02
  17.366  0.292E-01  0.974E-02  0.974E-02  0.974E-02
  17.376  0.325E-01  0.108E-01  0.108E-01  0.108E-01
  17.386  0.367E-01  0.122E-01  0.122E-01  0.122E-01
  17.396  0.421E-01  0.140E-01  0.140E-01  0.140E-01
  17.406  0.484E-01  0.161E-01  0.161E-01  0.161E-01
  17.416  0.559E-01  0.186E-01  0.186E-01  0.186E-01
  17.426  0.643E-01  0.214E-01  0.214E-01  0.214E-01
  17.436  0.737E-01  0.246E-01  0.246E-01  0.246E-01
  17.446  0.839E-01  0.280E-01  0.280E-01  0.280E-01
  17.456  0.949E-01  0.316E-01  0.316E-01  0.316E-01
  17.466  0.106E+00  0.355E-01  0.355E-01  0.355E-01
  17.476  0.118E+00  0.395E-01  0.395E-01  0.395E-01
  17.486  0.131E+00  0.436E-01  0.436E-01  0.436E-01
  17.496  0.143E+00  0.476E-01  0.476E-01  0.476E-01
  17.506  0.155E+00  0.515E-01  0.515E-01  0.515E-01
  17.516  0.166E+00  0.553E-01  0.553E-01  0.553E-01
  17.526  0.176E+00  0.587E-01  0.587E-01  0.587E-01
  17.536  0.185E+00  0.618E-01  0.618E-01  0.618E-01
  17.546  0.193E+00  0.643E-01  0.643E-01  0.643E-01
  17.556  0.199E+00  0.664E-01  0.664E-01  0.664E-01
  17.566  0.204E+00  0.678E-01  0.678E-01  0.678E-01
  17.576  0.206E+00  0.687E-01  0.687E-01  0.687E-01
  17.586  0.207E+00  0.689E-01  0.689E-01  0.689E-01
  17.596  0.205E+00  0.684E-01  0.684E-01  0.684E-01
  17.606  0.202E+00  0.673E-01  0.673E-01  0.673E-01
  17.616  0.197E+00  0.657E-01  0.657E-01  0.657E-01
  17.626  0.191E+00  0.635E-01  0.635E-01  0.635E-01
  17.636  0.183E+00  0.609E-01  0.609E-01  0.609E-01
  17.646  0.174E+00  0.580E-01  0.580E-01  0.580E-01
  17.656  0.164E+00  0.547E-01  0.547E-01  0.547E-01
  17.666  0.154E+00  0.514E-01  0.514E-01  0.514E-01
  17.676  0.144E+00  0.479E-01  0.479E-01  0.479E-01
  17.686  0.133E+00  0.445E-01  0.445E-01  0.445E-01
  17.696  0.123E+00  0.411E-01  0.411E-01  0.411E-01
  17.706  0.114E+00  0.379E-01  0.379E-01  0.379E-01
  17.716  0.105E+00  0.349E-01  0.349E-01  0.349E-01
  17.726  0.966E-01  0.322E-01  0.322E-01  0.322E-01
  17.736  0.891E-01  0.297E-01  0.297E-01  0.297E-01
  17.746  0.825E-01  0.275E-01  0.275E-01  0.275E-01
  17.756  0.767E-01  0.256E-01  0.256E-01  0.256E-01
  17.766  0.717E-01  0.239E-01  0.239E-01  0.239E-01
  17.776  0.675E-01  0.225E-01  0.225E-01  0.225E-01
  17.786  0.639E-01  0.213E-01  0.213E-01  0.213E-01
  17.796  0.609E-01  0.203E-01  0.203E-01  0.203E-01
  17.806  0.584E-01  0.195E-01  0.195E-01  0.195E-01
  17.816  0.563E-01  0.188E-01  0.188E-01  0.188E-01
  17.826  0.545E-01  0.182E-01  0.182E-01  0.182E-01
  17.836  0.530E-01  0.177E-01  0.177E-01  0.177E-01
  17.846  0.517E-01  0.172E-01  0.172E-01  0.172E-01
  17.856  0.505E-01  0.168E-01  0.168E-01  0.168E-01
  17.866  0.494E-01  0.165E-01  0.165E-01  0.165E-01
  17.876  0.483E-01  0.161E-01  0.161E-01  0.161E-01
  17.886  0.473E-01  0.158E-01  0.158E-01  0.158E-01
  17.896  0.463E-01  0.154E-01  0.154E-01  0.154E-01
  17.906  0.452E-01  0.151E-01  0.151E-01  0.151E-01
  17.916  0.442E-01  0.147E-01  0.147E-01  0.147E-01
  17.926  0.432E-01  0.144E-01  0.144E-01  0.144E-01
  17.936  0.422E-01  0.141E-01  0.141E-01  0.141E-01
  17.946  0.412E-01  0.137E-01  0.137E-01  0.137E-01
  17.956  0.402E-01  0.134E-01  0.134E-01  0.134E-01
  17.966  0.392E-01  0.131E-01  0.131E-01  0.131E-01
  17.976  0.383E-01  0.128E-01  0.128E-01  0.128E-01
  17.986  0.375E-01  0.125E-01  0.125E-01  0.125E-01
  17.996  0.366E-01  0.122E-01  0.122E-01  0.122E-01
  18.006  0.359E-01  0.120E-01  0.120E-01  0.120E-01
  18.016  0.352E-01  0.117E-01  0.117E-01  0.117E-01
  18.026  0.346E-01  0.115E-01  0.115E-01  0.115E-01
  18.036  0.340E-01  0.113E-01  0.113E-01  0.113E-01
  18.046  0.335E-01  0.112E-01  0.112E-01  0.112E-01
  18.056  0.329E-01  0.110E-01  0.110E-01  0.110E-01
  18.066  0.325E-01  0.108E-01  0.108E-01  0.108E-01
  18.076  0.320E-01  0.107E-01  0.107E-01  0.107E-01
  18.086  0.315E-01  0.105E-01  0.105E-01  0.105E-01
  18.096  0.309E-01  0.103E-01  0.103E-01  0.103E-01
  18.106  0.304E-01  0.101E-01  0.101E-01  0.101E-01
  18.116  0.297E-01  0.990E-02  0.990E-02  0.990E-02
  18.126  0.290E-01  0.965E-02  0.965E-02  0.965E-02
  18.136  0.281E-01  0.937E-02  0.937E-02  0.937E-02
  18.146  0.272E-01  0.906E-02  0.906E-02  0.906E-02
  18.156  0.261E-01  0.871E-02  0.871E-02  0.871E-02
  18.166  0.250E-01  0.833E-02  0.833E-02  0.833E-02
  18.176  0.237E-01  0.792E-02  0.792E-02  0.792E-02
  18.186  0.224E-01  0.748E-02  0.748E-02  0.748E-02
  18.196  0.211E-01  0.703E-02  0.703E-02  0.703E-02
  18.206  0.197E-01  0.656E-02  0.656E-02  0.656E-02
  18.216  0.183E-01  0.610E-02  0.610E-02  0.610E-02
  18.226  0.170E-01  0.565E-02  0.565E-02  0.565E-02
  18.236  0.157E-01  0.522E-02  0.522E-02  0.522E-02
  18.246  0.145E-01  0.482E-02  0.482E-02  0.482E-02
  18.256  0.134E-01  0.446E-02  0.446E-02  0.446E-02
  18.266  0.124E-01  0.414E-02  0.414E-02  0.414E-02
  18.276  0.116E-01  0.388E-02  0.388E-02  0.388E-02
  18.286  0.110E-01  0.367E-02  0.367E-02  0.367E-02
  18.296  0.106E-01  0.352E-02  0.352E-02  0.352E-02
  18.306  0.103E-01  0.343E-02  0.343E-02  0.343E-02
  18.316  0.102E-01  0.340E-02  0.340E-02  0.340E-02
  18.326  0.103E-01  0.343E-02  0.343E-02  0.343E-02
  18.336  0.105E-01  0.350E-02  0.350E-02  0.350E-02
  18.346  0.109E-01  0.362E-02  0.362E-02  0.362E-02
  18.356  0.113E-01  0.377E-02  0.377E-02  0.377E-02
  18.366  0.118E-01  0.395E-02  0.395E-02  0.395E-02
  18.376  0.124E-01  0.414E-02  0.414E-02  0.414E-02
  18.386  0.130E-01  0.434E-02  0.434E-02  0.434E-02
  18.396  0.136E-01  0.453E-02  0.453E-02  0.453E-02
  18.406  0.141E-01  0.470E-02  0.470E-02  0.470E-02
  18.416  0.146E-01  0.486E-02  0.486E-02  0.486E-02
  18.426  0.149E-01  0.498E-02  0.498E-02  0.498E-02
  18.436  0.152E-01  0.506E-02  0.506E-02  0.506E-02
  18.446  0.153E-01  0.510E-02  0.510E-02  0.510E-02
  18.456  0.153E-01  0.510E-02  0.510E-02  0.510E-02
  18.466  0.152E-01  0.506E-02  0.506E-02  0.506E-02
  18.476  0.149E-01  0.498E-02  0.498E-02  0.498E-02
  18.486  0.146E-01  0.485E-02  0.485E-02  0.485E-02
  18.496  0.141E-01  0.470E-02  0.470E-02  0.470E-02
  18.506  0.136E-01  0.452E-02  0.452E-02  0.452E-02
  18.516  0.130E-01  0.432E-02  0.432E-02  0.432E-02
  18.526  0.123E-01  0.411E-02  0.411E-02  0.411E-02
  18.536  0.117E-01  0.389E-02  0.389E-02  0.389E-02
  18.546  0.110E-01  0.367E-02  0.367E-02  0.367E-02
  18.556  0.104E-01  0.346E-02  0.346E-02  0.346E-02
  18.566  0.977E-02  0.326E-02  0.326E-02  0.326E-02
  18.576  0.921E-02  0.307E-02  0.307E-02  0.307E-02
  18.586  0.870E-02  0.290E-02  0.290E-02  0.290E-02
  18.596  0.823E-02  0.274E-02  0.274E-02  0.274E-02
  18.606  0.782E-02  0.261E-02  0.261E-02  0.261E-02
  18.616  0.745E-02  0.248E-02  0.248E-02  0.248E-02
  18.626  0.712E-02  0.237E-02  0.237E-02  0.237E-02
  18.636  0.683E-02  0.228E-02  0.228E-02  0.228E-02
  18.646  0.655E-02  0.218E-02  0.218E-02  0.218E-02
  18.656  0.629E-02  0.210E-02  0.210E-02  0.210E-02
  18.666  0.604E-02  0.201E-02  0.201E-02  0.201E-02
  18.676  0.578E-02  0.193E-02  0.193E-02  0.193E-02
  18.686  0.552E-02  0.184E-02  0.184E-02  0.184E-02
  18.696  0.524E-02  0.175E-02  0.175E-02  0.175E-02
  18.706  0.495E-02  0.165E-02  0.165E-02  0.165E-02
  18.716  0.465E-02  0.155E-02  0.155E-02  0.155E-02
  18.726  0.433E-02  0.144E-02  0.144E-02  0.144E-02
  18.736  0.401E-02  0.134E-02  0.134E-02  0.134E-02
  18.746  0.367E-02  0.122E-02  0.122E-02  0.122E-02
  18.756  0.334E-02  0.111E-02  0.111E-02  0.111E-02
  18.766  0.300E-02  0.100E-02  0.100E-02  0.100E-02
  18.776  0.268E-02  0.893E-03  0.893E-03  0.893E-03
  18.786  0.236E-02  0.788E-03  0.788E-03  0.788E-03
  18.796  0.207E-02  0.689E-03  0.689E-03  0.689E-03
  18.806  0.179E-02  0.596E-03  0.596E-03  0.596E-03
  18.816  0.153E-02  0.510E-03  0.510E-03  0.510E-03
  18.826  0.130E-02  0.432E-03  0.432E-03  0.432E-03
  18.836  0.109E-02  0.362E-03  0.362E-03  0.362E-03
  18.846  0.901E-03  0.300E-03  0.300E-03  0.300E-03
  18.856  0.740E-03  0.247E-03  0.247E-03  0.247E-03
  18.866  0.601E-03  0.200E-03  0.200E-03  0.200E-03
  18.876  0.483E-03  0.161E-03  0.161E-03  0.161E-03
  18.886  0.384E-03  0.128E-03  0.128E-03  0.128E-03
  18.896  0.302E-03  0.101E-03  0.101E-03  0.101E-03
  18.906  0.235E-03  0.782E-04  0.782E-04  0.782E-04
  18.916  0.181E-03  0.602E-04  0.602E-04  0.602E-04
  18.926  0.138E-03  0.459E-04  0.459E-04  0.459E-04
  18.936  0.104E-03  0.345E-04  0.345E-04  0.345E-04
  18.946  0.772E-04  0.257E-04  0.257E-04  0.257E-04
  18.956  0.569E-04  0.190E-04  0.190E-04  0.190E-04
  18.966  0.415E-04  0.138E-04  0.138E-04  0.138E-04
  18.976  0.299E-04  0.998E-05  0.998E-05  0.998E-05
  18.986  0.214E-04  0.712E-05  0.712E-05  0.712E-05
  18.996  0.151E-04  0.503E-05  0.503E-05  0.503E-05
  19.006  0.105E-04  0.351E-05  0.351E-05  0.351E-05
  19.016  0.728E-05  0.243E-05  0.243E-05  0.243E-05
  19.026  0.498E-05  0.166E-05  0.166E-05  0.166E-05
  19.036  0.337E-05  0.112E-05  0.112E-05  0.112E-05
  19.046  0.225E-05  0.750E-06  0.750E-06  0.750E-06
  19.056  0.149E-05  0.497E-06  0.497E-06  0.497E-06
  19.066  0.975E-06  0.325E-06  0.325E-06  0.325E-06
  19.076  0.632E-06  0.211E-06  0.211E-06  0.211E-06
  19.086  0.405E-06  0.135E-06  0.135E-06  0.135E-06
