# E (eV)   ldos(E)   pdos(E)    pdos(E)    pdos(E)   
  -5.983  0.175E-06  0.584E-07  0.584E-07  0.584E-07
  -5.973  0.282E-06  0.941E-07  0.941E-07  0.941E-07
  -5.963  0.449E-06  0.150E-06  0.150E-06  0.150E-06
  -5.953  0.708E-06  0.236E-06  0.236E-06  0.236E-06
  -5.943  0.110E-05  0.368E-06  0.368E-06  0.368E-06
  -5.933  0.170E-05  0.568E-06  0.568E-06  0.568E-06
  -5.923  0.260E-05  0.868E-06  0.868E-06  0.868E-06
  -5.913  0.393E-05  0.131E-05  0.131E-05  0.131E-05
  -5.903  0.588E-05  0.196E-05  0.196E-05  0.196E-05
  -5.893  0.870E-05  0.290E-05  0.290E-05  0.290E-05
  -5.883  0.127E-04  0.424E-05  0.424E-05  0.424E-05
  -5.873  0.185E-04  0.615E-05  0.615E-05  0.615E-05
  -5.863  0.265E-04  0.882E-05  0.882E-05  0.882E-05
  -5.853  0.376E-04  0.125E-04  0.125E-04  0.125E-04
  -5.843  0.528E-04  0.176E-04  0.176E-04  0.176E-04
  -5.833  0.734E-04  0.245E-04  0.245E-04  0.245E-04
  -5.823  0.101E-03  0.337E-04  0.337E-04  0.337E-04
  -5.813  0.138E-03  0.459E-04  0.459E-04  0.459E-04
  -5.803  0.186E-03  0.620E-04  0.620E-04  0.620E-04
  -5.793  0.248E-03  0.828E-04  0.828E-04  0.828E-04
  -5.783  0.329E-03  0.110E-03  0.110E-03  0.110E-03
  -5.773  0.431E-03  0.144E-03  0.144E-03  0.144E-03
  -5.763  0.560E-03  0.187E-03  0.187E-03  0.187E-03
  -5.753  0.720E-03  0.240E-03  0.240E-03  0.240E-03
  -5.743  0.918E-03  0.306E-03  0.306E-03  0.306E-03
  -5.733  0.116E-02  0.387E-03  0.387E-03  0.387E-03
  -5.723  0.145E-02  0.484E-03  0.484E-03  0.484E-03
  -5.713  0.180E-02  0.601E-03  0.601E-03  0.601E-03
  -5.703  0.222E-02  0.739E-03  0.739E-03  0.739E-03
  -5.693  0.270E-02  0.901E-03  0.901E-03  0.901E-03
  -5.683  0.327E-02  0.109E-02  0.109E-02  0.109E-02
  -5.673  0.393E-02  0.131E-02  0.131E-02  0.131E-02
  -5.663  0.468E-02  0.156E-02  0.156E-02  0.156E-02
  -5.653  0.552E-02  0.184E-02  0.184E-02  0.184E-02
  -5.643  0.648E-02  0.216E-02  0.216E-02  0.216E-02
  -5.633  0.754E-02  0.251E-02  0.251E-02  0.251E-02
  -5.623  0.870E-02  0.290E-02  0.290E-02  0.290E-02
  -5.613  0.998E-02  0.333E-02  0.333E-02  0.333E-02
  -5.603  0.114E-01  0.379E-02  0.379E-02  0.379E-02
  -5.593  0.129E-01  0.428E-02  0.428E-02  0.428E-02
  -5.583  0.144E-01  0.481E-02  0.481E-02  0.481E-02
  -5.573  0.161E-01  0.536E-02  0.536E-02  0.536E-02
  -5.563  0.178E-01  0.594E-02  0.594E-02  0.594E-02
  -5.553  0.196E-01  0.654E-02  0.654E-02  0.654E-02
  -5.543  0.214E-01  0.715E-02  0.715E-02  0.715E-02
  -5.533  0.233E-01  0.776E-02  0.776E-02  0.776E-02
  -5.523  0.251E-01  0.838E-02  0.838E-02  0.838E-02
  -5.513  0.270E-01  0.899E-02  0.899E-02  0.899E-02
  -5.503  0.288E-01  0.958E-02  0.958E-02  0.958E-02
  -5.493  0.305E-01  0.102E-01  0.102E-01  0.102E-01
  -5.483  0.322E-01  0.107E-01  0.107E-01  0.107E-01
  -5.473  0.337E-01  0.112E-01  0.112E-01  0.112E-01
  -5.463  0.352E-01  0.117E-01  0.117E-01  0.117E-01
  -5.453  0.367E-01  0.122E-01  0.122E-01  0.122E-01
  -5.443  0.380E-01  0.127E-01  0.127E-01  0.127E-01
  -5.433  0.393E-01  0.131E-01  0.131E-01  0.131E-01
  -5.423  0.406E-01  0.135E-01  0.135E-01  0.135E-01
  -5.413  0.418E-01  0.139E-01  0.139E-01  0.139E-01
  -5.403  0.430E-01  0.143E-01  0.143E-01  0.143E-01
  -5.393  0.443E-01  0.148E-01  0.148E-01  0.148E-01
  -5.383  0.455E-01  0.152E-01  0.152E-01  0.152E-01
  -5.373  0.468E-01  0.156E-01  0.156E-01  0.156E-01
  -5.363  0.482E-01  0.161E-01  0.161E-01  0.161E-01
  -5.353  0.496E-01  0.165E-01  0.165E-01  0.165E-01
  -5.343  0.510E-01  0.170E-01  0.170E-01  0.170E-01
  -5.333  0.524E-01  0.175E-01  0.175E-01  0.175E-01
  -5.323  0.538E-01  0.179E-01  0.179E-01  0.179E-01
  -5.313  0.551E-01  0.184E-01  0.184E-01  0.184E-01
  -5.303  0.564E-01  0.188E-01  0.188E-01  0.188E-01
  -5.293  0.574E-01  0.191E-01  0.191E-01  0.191E-01
  -5.283  0.582E-01  0.194E-01  0.194E-01  0.194E-01
  -5.273  0.588E-01  0.196E-01  0.196E-01  0.196E-01
  -5.263  0.592E-01  0.197E-01  0.197E-01  0.197E-01
  -5.253  0.592E-01  0.197E-01  0.197E-01  0.197E-01
  -5.243  0.590E-01  0.197E-01  0.197E-01  0.197E-01
  -5.233  0.584E-01  0.195E-01  0.195E-01  0.195E-01
  -5.223  0.577E-01  0.192E-01  0.192E-01  0.192E-01
  -5.213  0.568E-01  0.189E-01  0.189E-01  0.189E-01
  -5.203  0.558E-01  0.186E-01  0.186E-01  0.186E-01
  -5.193  0.548E-01  0.183E-01  0.183E-01  0.183E-01
  -5.183  0.538E-01  0.179E-01  0.179E-01  0.179E-01
  -5.173  0.530E-01  0.177E-01  0.177E-01  0.177E-01
  -5.163  0.525E-01  0.175E-01  0.175E-01  0.175E-01
  -5.153  0.523E-01  0.174E-01  0.174E-01  0.174E-01
  -5.143  0.524E-01  0.175E-01  0.175E-01  0.175E-01
  -5.133  0.530E-01  0.177E-01  0.177E-01  0.177E-01
  -5.123  0.541E-01  0.180E-01  0.180E-01  0.180E-01
  -5.113  0.556E-01  0.185E-01  0.185E-01  0.185E-01
  -5.103  0.575E-01  0.192E-01  0.192E-01  0.192E-01
  -5.093  0.597E-01  0.199E-01  0.199E-01  0.199E-01
  -5.083  0.623E-01  0.208E-01  0.208E-01  0.208E-01
  -5.073  0.650E-01  0.217E-01  0.217E-01  0.217E-01
  -5.063  0.678E-01  0.226E-01  0.226E-01  0.226E-01
  -5.053  0.705E-01  0.235E-01  0.235E-01  0.235E-01
  -5.043  0.730E-01  0.243E-01  0.243E-01  0.243E-01
  -5.033  0.752E-01  0.251E-01  0.251E-01  0.251E-01
  -5.023  0.770E-01  0.257E-01  0.257E-01  0.257E-01
  -5.013  0.782E-01  0.261E-01  0.261E-01  0.261E-01
  -5.003  0.788E-01  0.263E-01  0.263E-01  0.263E-01
  -4.993  0.787E-01  0.262E-01  0.262E-01  0.262E-01
  -4.983  0.779E-01  0.260E-01  0.260E-01  0.260E-01
  -4.973  0.765E-01  0.255E-01  0.255E-01  0.255E-01
  -4.963  0.744E-01  0.248E-01  0.248E-01  0.248E-01
  -4.953  0.718E-01  0.239E-01  0.239E-01  0.239E-01
  -4.943  0.688E-01  0.229E-01  0.229E-01  0.229E-01
  -4.933  0.653E-01  0.218E-01  0.218E-01  0.218E-01
  -4.923  0.617E-01  0.206E-01  0.206E-01  0.206E-01
  -4.913  0.580E-01  0.193E-01  0.193E-01  0.193E-01
  -4.903  0.544E-01  0.181E-01  0.181E-01  0.181E-01
  -4.893  0.510E-01  0.170E-01  0.170E-01  0.170E-01
  -4.883  0.480E-01  0.160E-01  0.160E-01  0.160E-01
  -4.873  0.455E-01  0.152E-01  0.152E-01  0.152E-01
  -4.863  0.436E-01  0.145E-01  0.145E-01  0.145E-01
  -4.853  0.425E-01  0.142E-01  0.142E-01  0.142E-01
  -4.843  0.421E-01  0.140E-01  0.140E-01  0.140E-01
  -4.833  0.426E-01  0.142E-01  0.142E-01  0.142E-01
  -4.823  0.439E-01  0.146E-01  0.146E-01  0.146E-01
  -4.813  0.460E-01  0.153E-01  0.153E-01  0.153E-01
  -4.803  0.489E-01  0.163E-01  0.163E-01  0.163E-01
  -4.793  0.525E-01  0.175E-01  0.175E-01  0.175E-01
  -4.783  0.567E-01  0.189E-01  0.189E-01  0.189E-01
  -4.773  0.613E-01  0.204E-01  0.204E-01  0.204E-01
  -4.763  0.663E-01  0.221E-01  0.221E-01  0.221E-01
  -4.753  0.715E-01  0.238E-01  0.238E-01  0.238E-01
  -4.743  0.767E-01  0.256E-01  0.256E-01  0.256E-01
  -4.733  0.816E-01  0.272E-01  0.272E-01  0.272E-01
  -4.723  0.863E-01  0.288E-01  0.288E-01  0.288E-01
  -4.713  0.903E-01  0.301E-01  0.301E-01  0.301E-01
  -4.703  0.937E-01  0.312E-01  0.312E-01  0.312E-01
  -4.693  0.963E-01  0.321E-01  0.321E-01  0.321E-01
  -4.683  0.979E-01  0.326E-01  0.326E-01  0.326E-01
  -4.673  0.986E-01  0.329E-01  0.329E-01  0.329E-01
  -4.663  0.982E-01  0.327E-01  0.327E-01  0.327E-01
  -4.653  0.968E-01  0.323E-01  0.323E-01  0.323E-01
  -4.643  0.944E-01  0.315E-01  0.315E-01  0.315E-01
  -4.633  0.912E-01  0.304E-01  0.304E-01  0.304E-01
  -4.623  0.871E-01  0.290E-01  0.290E-01  0.290E-01
  -4.613  0.824E-01  0.275E-01  0.275E-01  0.275E-01
  -4.603  0.771E-01  0.257E-01  0.257E-01  0.257E-01
  -4.593  0.714E-01  0.238E-01  0.238E-01  0.238E-01
  -4.583  0.656E-01  0.219E-01  0.219E-01  0.219E-01
  -4.573  0.597E-01  0.199E-01  0.199E-01  0.199E-01
  -4.563  0.539E-01  0.180E-01  0.180E-01  0.180E-01
  -4.553  0.484E-01  0.161E-01  0.161E-01  0.161E-01
  -4.543  0.433E-01  0.144E-01  0.144E-01  0.144E-01
  -4.533  0.388E-01  0.129E-01  0.129E-01  0.129E-01
  -4.523  0.348E-01  0.116E-01  0.116E-01  0.116E-01
  -4.513  0.316E-01  0.105E-01  0.105E-01  0.105E-01
  -4.503  0.291E-01  0.970E-02  0.970E-02  0.970E-02
  -4.493  0.275E-01  0.917E-02  0.917E-02  0.917E-02
  -4.483  0.268E-01  0.892E-02  0.892E-02  0.892E-02
  -4.473  0.269E-01  0.898E-02  0.898E-02  0.898E-02
  -4.463  0.280E-01  0.934E-02  0.934E-02  0.934E-02
  -4.453  0.300E-01  0.100E-01  0.100E-01  0.100E-01
  -4.443  0.329E-01  0.110E-01  0.110E-01  0.110E-01
  -4.433  0.366E-01  0.122E-01  0.122E-01  0.122E-01
  -4.423  0.411E-01  0.137E-01  0.137E-01  0.137E-01
  -4.413  0.464E-01  0.155E-01  0.155E-01  0.155E-01
  -4.403  0.523E-01  0.174E-01  0.174E-01  0.174E-01
  -4.393  0.587E-01  0.196E-01  0.196E-01  0.196E-01
  -4.383  0.654E-01  0.218E-01  0.218E-01  0.218E-01
  -4.373  0.724E-01  0.241E-01  0.241E-01  0.241E-01
  -4.363  0.794E-01  0.265E-01  0.265E-01  0.265E-01
  -4.353  0.863E-01  0.288E-01  0.288E-01  0.288E-01
  -4.343  0.929E-01  0.310E-01  0.310E-01  0.310E-01
  -4.333  0.989E-01  0.330E-01  0.330E-01  0.330E-01
  -4.323  0.104E+00  0.347E-01  0.347E-01  0.347E-01
  -4.313  0.109E+00  0.362E-01  0.362E-01  0.362E-01
  -4.303  0.112E+00  0.374E-01  0.374E-01  0.374E-01
  -4.293  0.114E+00  0.382E-01  0.382E-01  0.382E-01
  -4.283  0.116E+00  0.385E-01  0.385E-01  0.385E-01
  -4.273  0.116E+00  0.385E-01  0.385E-01  0.385E-01
  -4.263  0.114E+00  0.381E-01  0.381E-01  0.381E-01
  -4.253  0.112E+00  0.372E-01  0.372E-01  0.372E-01
  -4.243  0.108E+00  0.360E-01  0.360E-01  0.360E-01
  -4.233  0.103E+00  0.345E-01  0.345E-01  0.345E-01
  -4.223  0.979E-01  0.326E-01  0.326E-01  0.326E-01
  -4.213  0.917E-01  0.306E-01  0.306E-01  0.306E-01
  -4.203  0.850E-01  0.283E-01  0.283E-01  0.283E-01
  -4.193  0.779E-01  0.260E-01  0.260E-01  0.260E-01
  -4.183  0.707E-01  0.236E-01  0.236E-01  0.236E-01
  -4.173  0.635E-01  0.212E-01  0.212E-01  0.212E-01
  -4.163  0.564E-01  0.188E-01  0.188E-01  0.188E-01
  -4.153  0.496E-01  0.165E-01  0.165E-01  0.165E-01
  -4.143  0.433E-01  0.144E-01  0.144E-01  0.144E-01
  -4.133  0.374E-01  0.125E-01  0.125E-01  0.125E-01
  -4.123  0.322E-01  0.107E-01  0.107E-01  0.107E-01
  -4.113  0.275E-01  0.917E-02  0.917E-02  0.917E-02
  -4.103  0.236E-01  0.785E-02  0.785E-02  0.785E-02
  -4.093  0.203E-01  0.676E-02  0.676E-02  0.676E-02
  -4.083  0.177E-01  0.591E-02  0.591E-02  0.591E-02
  -4.073  0.159E-01  0.529E-02  0.529E-02  0.529E-02
  -4.063  0.147E-01  0.491E-02  0.491E-02  0.491E-02
  -4.053  0.143E-01  0.477E-02  0.477E-02  0.477E-02
  -4.043  0.146E-01  0.487E-02  0.487E-02  0.487E-02
  -4.033  0.156E-01  0.521E-02  0.521E-02  0.521E-02
  -4.023  0.174E-01  0.580E-02  0.580E-02  0.580E-02
  -4.013  0.199E-01  0.663E-02  0.663E-02  0.663E-02
  -4.003  0.232E-01  0.772E-02  0.772E-02  0.772E-02
  -3.993  0.272E-01  0.905E-02  0.905E-02  0.905E-02
  -3.983  0.319E-01  0.106E-01  0.106E-01  0.106E-01
  -3.973  0.374E-01  0.125E-01  0.125E-01  0.125E-01
  -3.963  0.435E-01  0.145E-01  0.145E-01  0.145E-01
  -3.953  0.502E-01  0.167E-01  0.167E-01  0.167E-01
  -3.943  0.575E-01  0.192E-01  0.192E-01  0.192E-01
  -3.933  0.652E-01  0.217E-01  0.217E-01  0.217E-01
  -3.923  0.732E-01  0.244E-01  0.244E-01  0.244E-01
  -3.913  0.813E-01  0.271E-01  0.271E-01  0.271E-01
  -3.903  0.893E-01  0.298E-01  0.298E-01  0.298E-01
  -3.893  0.972E-01  0.324E-01  0.324E-01  0.324E-01
  -3.883  0.105E+00  0.348E-01  0.348E-01  0.348E-01
  -3.873  0.111E+00  0.371E-01  0.371E-01  0.371E-01
  -3.863  0.117E+00  0.391E-01  0.391E-01  0.391E-01
  -3.853  0.122E+00  0.407E-01  0.407E-01  0.407E-01
  -3.843  0.126E+00  0.419E-01  0.419E-01  0.419E-01
  -3.833  0.128E+00  0.427E-01  0.427E-01  0.427E-01
  -3.823  0.129E+00  0.431E-01  0.431E-01  0.431E-01
  -3.813  0.129E+00  0.430E-01  0.430E-01  0.430E-01
  -3.803  0.127E+00  0.425E-01  0.425E-01  0.425E-01
  -3.793  0.124E+00  0.415E-01  0.415E-01  0.415E-01
  -3.783  0.120E+00  0.400E-01  0.400E-01  0.400E-01
  -3.773  0.115E+00  0.383E-01  0.383E-01  0.383E-01
  -3.763  0.108E+00  0.362E-01  0.362E-01  0.362E-01
  -3.753  0.101E+00  0.338E-01  0.338E-01  0.338E-01
  -3.743  0.939E-01  0.313E-01  0.313E-01  0.313E-01
  -3.733  0.859E-01  0.286E-01  0.286E-01  0.286E-01
  -3.723  0.778E-01  0.259E-01  0.259E-01  0.259E-01
  -3.713  0.696E-01  0.232E-01  0.232E-01  0.232E-01
  -3.703  0.617E-01  0.206E-01  0.206E-01  0.206E-01
  -3.693  0.541E-01  0.180E-01  0.180E-01  0.180E-01
  -3.683  0.469E-01  0.156E-01  0.156E-01  0.156E-01
  -3.673  0.403E-01  0.134E-01  0.134E-01  0.134E-01
  -3.663  0.342E-01  0.114E-01  0.114E-01  0.114E-01
  -3.653  0.288E-01  0.959E-02  0.959E-02  0.959E-02
  -3.643  0.240E-01  0.800E-02  0.800E-02  0.800E-02
  -3.633  0.198E-01  0.662E-02  0.662E-02  0.662E-02
  -3.623  0.163E-01  0.544E-02  0.544E-02  0.544E-02
  -3.613  0.134E-01  0.447E-02  0.447E-02  0.447E-02
  -3.603  0.111E-01  0.369E-02  0.369E-02  0.369E-02
  -3.593  0.924E-02  0.308E-02  0.308E-02  0.308E-02
  -3.583  0.794E-02  0.265E-02  0.265E-02  0.265E-02
  -3.573  0.712E-02  0.237E-02  0.237E-02  0.237E-02
  -3.563  0.678E-02  0.226E-02  0.226E-02  0.226E-02
  -3.553  0.690E-02  0.230E-02  0.230E-02  0.230E-02
  -3.543  0.749E-02  0.250E-02  0.250E-02  0.250E-02
  -3.533  0.857E-02  0.286E-02  0.286E-02  0.286E-02
  -3.523  0.102E-01  0.338E-02  0.338E-02  0.338E-02
  -3.513  0.123E-01  0.409E-02  0.409E-02  0.409E-02
  -3.503  0.150E-01  0.499E-02  0.499E-02  0.499E-02
  -3.493  0.183E-01  0.610E-02  0.610E-02  0.610E-02
  -3.483  0.223E-01  0.742E-02  0.742E-02  0.742E-02
  -3.473  0.269E-01  0.896E-02  0.896E-02  0.896E-02
  -3.463  0.322E-01  0.107E-01  0.107E-01  0.107E-01
  -3.453  0.382E-01  0.127E-01  0.127E-01  0.127E-01
  -3.443  0.449E-01  0.150E-01  0.150E-01  0.150E-01
  -3.433  0.522E-01  0.174E-01  0.174E-01  0.174E-01
  -3.423  0.601E-01  0.200E-01  0.200E-01  0.200E-01
  -3.413  0.684E-01  0.228E-01  0.228E-01  0.228E-01
  -3.403  0.771E-01  0.257E-01  0.257E-01  0.257E-01
  -3.393  0.859E-01  0.286E-01  0.286E-01  0.286E-01
  -3.383  0.946E-01  0.315E-01  0.315E-01  0.315E-01
  -3.373  0.103E+00  0.344E-01  0.344E-01  0.344E-01
  -3.363  0.111E+00  0.371E-01  0.371E-01  0.371E-01
  -3.353  0.119E+00  0.396E-01  0.396E-01  0.396E-01
  -3.343  0.125E+00  0.418E-01  0.418E-01  0.418E-01
  -3.333  0.131E+00  0.437E-01  0.437E-01  0.437E-01
  -3.323  0.135E+00  0.451E-01  0.451E-01  0.451E-01
  -3.313  0.138E+00  0.461E-01  0.461E-01  0.461E-01
  -3.303  0.140E+00  0.466E-01  0.466E-01  0.466E-01
  -3.293  0.140E+00  0.466E-01  0.466E-01  0.466E-01
  -3.283  0.138E+00  0.461E-01  0.461E-01  0.461E-01
  -3.273  0.135E+00  0.451E-01  0.451E-01  0.451E-01
  -3.263  0.131E+00  0.437E-01  0.437E-01  0.437E-01
  -3.253  0.126E+00  0.419E-01  0.419E-01  0.419E-01
  -3.243  0.119E+00  0.397E-01  0.397E-01  0.397E-01
  -3.233  0.112E+00  0.372E-01  0.372E-01  0.372E-01
  -3.223  0.103E+00  0.345E-01  0.345E-01  0.345E-01
  -3.213  0.949E-01  0.316E-01  0.316E-01  0.316E-01
  -3.203  0.861E-01  0.287E-01  0.287E-01  0.287E-01
  -3.193  0.773E-01  0.258E-01  0.258E-01  0.258E-01
  -3.183  0.686E-01  0.229E-01  0.229E-01  0.229E-01
  -3.173  0.603E-01  0.201E-01  0.201E-01  0.201E-01
  -3.163  0.524E-01  0.175E-01  0.175E-01  0.175E-01
  -3.153  0.451E-01  0.150E-01  0.150E-01  0.150E-01
  -3.143  0.383E-01  0.128E-01  0.128E-01  0.128E-01
  -3.133  0.323E-01  0.108E-01  0.108E-01  0.108E-01
  -3.123  0.269E-01  0.895E-02  0.895E-02  0.895E-02
  -3.113  0.221E-01  0.738E-02  0.738E-02  0.738E-02
  -3.103  0.180E-01  0.601E-02  0.601E-02  0.601E-02
  -3.093  0.146E-01  0.486E-02  0.486E-02  0.486E-02
  -3.083  0.117E-01  0.389E-02  0.389E-02  0.389E-02
  -3.073  0.927E-02  0.309E-02  0.309E-02  0.309E-02
  -3.063  0.733E-02  0.244E-02  0.244E-02  0.244E-02
  -3.053  0.580E-02  0.193E-02  0.193E-02  0.193E-02
  -3.043  0.464E-02  0.155E-02  0.155E-02  0.155E-02
  -3.033  0.380E-02  0.127E-02  0.127E-02  0.127E-02
  -3.023  0.326E-02  0.109E-02  0.109E-02  0.109E-02
  -3.013  0.299E-02  0.996E-03  0.996E-03  0.996E-03
  -3.003  0.298E-02  0.994E-03  0.994E-03  0.994E-03
  -2.993  0.324E-02  0.108E-02  0.108E-02  0.108E-02
  -2.983  0.377E-02  0.126E-02  0.126E-02  0.126E-02
  -2.973  0.459E-02  0.153E-02  0.153E-02  0.153E-02
  -2.963  0.574E-02  0.191E-02  0.191E-02  0.191E-02
  -2.953  0.726E-02  0.242E-02  0.242E-02  0.242E-02
  -2.943  0.920E-02  0.307E-02  0.307E-02  0.307E-02
  -2.933  0.116E-01  0.387E-02  0.387E-02  0.387E-02
  -2.923  0.145E-01  0.485E-02  0.485E-02  0.485E-02
  -2.913  0.181E-01  0.602E-02  0.602E-02  0.602E-02
  -2.903  0.222E-01  0.740E-02  0.740E-02  0.740E-02
  -2.893  0.270E-01  0.901E-02  0.901E-02  0.901E-02
  -2.883  0.326E-01  0.109E-01  0.109E-01  0.109E-01
  -2.873  0.388E-01  0.129E-01  0.129E-01  0.129E-01
  -2.863  0.458E-01  0.153E-01  0.153E-01  0.153E-01
  -2.853  0.534E-01  0.178E-01  0.178E-01  0.178E-01
  -2.843  0.616E-01  0.205E-01  0.205E-01  0.205E-01
  -2.833  0.703E-01  0.234E-01  0.234E-01  0.234E-01
  -2.823  0.794E-01  0.265E-01  0.265E-01  0.265E-01
  -2.813  0.887E-01  0.296E-01  0.296E-01  0.296E-01
  -2.803  0.980E-01  0.327E-01  0.327E-01  0.327E-01
  -2.793  0.107E+00  0.357E-01  0.357E-01  0.357E-01
  -2.783  0.116E+00  0.386E-01  0.386E-01  0.386E-01
  -2.773  0.124E+00  0.413E-01  0.413E-01  0.413E-01
  -2.763  0.131E+00  0.438E-01  0.438E-01  0.438E-01
  -2.753  0.137E+00  0.458E-01  0.458E-01  0.458E-01
  -2.743  0.142E+00  0.474E-01  0.474E-01  0.474E-01
  -2.733  0.146E+00  0.486E-01  0.486E-01  0.486E-01
  -2.723  0.148E+00  0.493E-01  0.493E-01  0.493E-01
  -2.713  0.148E+00  0.494E-01  0.494E-01  0.494E-01
  -2.703  0.147E+00  0.490E-01  0.490E-01  0.490E-01
  -2.693  0.144E+00  0.481E-01  0.481E-01  0.481E-01
  -2.683  0.140E+00  0.467E-01  0.467E-01  0.467E-01
  -2.673  0.135E+00  0.448E-01  0.448E-01  0.448E-01
  -2.663  0.128E+00  0.426E-01  0.426E-01  0.426E-01
  -2.653  0.120E+00  0.400E-01  0.400E-01  0.400E-01
  -2.643  0.112E+00  0.372E-01  0.372E-01  0.372E-01
  -2.633  0.103E+00  0.342E-01  0.342E-01  0.342E-01
  -2.623  0.934E-01  0.311E-01  0.311E-01  0.311E-01
  -2.613  0.841E-01  0.280E-01  0.280E-01  0.280E-01
  -2.603  0.749E-01  0.250E-01  0.250E-01  0.250E-01
  -2.593  0.660E-01  0.220E-01  0.220E-01  0.220E-01
  -2.583  0.575E-01  0.192E-01  0.192E-01  0.192E-01
  -2.573  0.495E-01  0.165E-01  0.165E-01  0.165E-01
  -2.563  0.422E-01  0.141E-01  0.141E-01  0.141E-01
  -2.553  0.356E-01  0.119E-01  0.119E-01  0.119E-01
  -2.543  0.297E-01  0.991E-02  0.991E-02  0.991E-02
  -2.533  0.246E-01  0.818E-02  0.818E-02  0.818E-02
  -2.523  0.201E-01  0.668E-02  0.668E-02  0.668E-02
  -2.513  0.162E-01  0.540E-02  0.540E-02  0.540E-02
  -2.503  0.130E-01  0.432E-02  0.432E-02  0.432E-02
  -2.493  0.102E-01  0.342E-02  0.342E-02  0.342E-02
  -2.483  0.803E-02  0.268E-02  0.268E-02  0.268E-02
  -2.473  0.623E-02  0.208E-02  0.208E-02  0.208E-02
  -2.463  0.479E-02  0.160E-02  0.160E-02  0.160E-02
  -2.453  0.366E-02  0.122E-02  0.122E-02  0.122E-02
  -2.443  0.280E-02  0.934E-03  0.934E-03  0.934E-03
  -2.433  0.216E-02  0.720E-03  0.720E-03  0.720E-03
  -2.423  0.170E-02  0.568E-03  0.568E-03  0.568E-03
  -2.413  0.141E-02  0.471E-03  0.471E-03  0.471E-03
  -2.403  0.126E-02  0.421E-03  0.421E-03  0.421E-03
  -2.393  0.125E-02  0.417E-03  0.417E-03  0.417E-03
  -2.383  0.138E-02  0.459E-03  0.459E-03  0.459E-03
  -2.373  0.164E-02  0.548E-03  0.548E-03  0.548E-03
  -2.363  0.207E-02  0.690E-03  0.690E-03  0.690E-03
  -2.353  0.268E-02  0.894E-03  0.894E-03  0.894E-03
  -2.343  0.351E-02  0.117E-02  0.117E-02  0.117E-02
  -2.333  0.460E-02  0.153E-02  0.153E-02  0.153E-02
  -2.323  0.599E-02  0.200E-02  0.200E-02  0.200E-02
  -2.313  0.775E-02  0.258E-02  0.258E-02  0.258E-02
  -2.303  0.993E-02  0.331E-02  0.331E-02  0.331E-02
  -2.293  0.126E-01  0.420E-02  0.420E-02  0.420E-02
  -2.283  0.158E-01  0.527E-02  0.527E-02  0.527E-02
  -2.273  0.196E-01  0.654E-02  0.654E-02  0.654E-02
  -2.263  0.241E-01  0.804E-02  0.804E-02  0.804E-02
  -2.253  0.293E-01  0.977E-02  0.977E-02  0.977E-02
  -2.243  0.352E-01  0.117E-01  0.117E-01  0.117E-01
  -2.233  0.419E-01  0.140E-01  0.140E-01  0.140E-01
  -2.223  0.493E-01  0.164E-01  0.164E-01  0.164E-01
  -2.213  0.574E-01  0.191E-01  0.191E-01  0.191E-01
  -2.203  0.661E-01  0.220E-01  0.220E-01  0.220E-01
  -2.193  0.753E-01  0.251E-01  0.251E-01  0.251E-01
  -2.183  0.849E-01  0.283E-01  0.283E-01  0.283E-01
  -2.173  0.946E-01  0.315E-01  0.315E-01  0.315E-01
  -2.163  0.104E+00  0.348E-01  0.348E-01  0.348E-01
  -2.153  0.114E+00  0.380E-01  0.380E-01  0.380E-01
  -2.143  0.123E+00  0.410E-01  0.410E-01  0.410E-01
  -2.133  0.131E+00  0.437E-01  0.437E-01  0.437E-01
  -2.123  0.139E+00  0.462E-01  0.462E-01  0.462E-01
  -2.113  0.145E+00  0.483E-01  0.483E-01  0.483E-01
  -2.103  0.150E+00  0.499E-01  0.499E-01  0.499E-01
  -2.093  0.153E+00  0.510E-01  0.510E-01  0.510E-01
  -2.083  0.155E+00  0.516E-01  0.516E-01  0.516E-01
  -2.073  0.155E+00  0.517E-01  0.517E-01  0.517E-01
  -2.063  0.153E+00  0.511E-01  0.511E-01  0.511E-01
  -2.053  0.150E+00  0.501E-01  0.501E-01  0.501E-01
  -2.043  0.146E+00  0.485E-01  0.485E-01  0.485E-01
  -2.033  0.139E+00  0.465E-01  0.465E-01  0.465E-01
  -2.023  0.132E+00  0.441E-01  0.441E-01  0.441E-01
  -2.013  0.124E+00  0.413E-01  0.413E-01  0.413E-01
  -2.003  0.115E+00  0.384E-01  0.384E-01  0.384E-01
  -1.993  0.106E+00  0.352E-01  0.352E-01  0.352E-01
  -1.983  0.959E-01  0.320E-01  0.320E-01  0.320E-01
  -1.973  0.861E-01  0.287E-01  0.287E-01  0.287E-01
  -1.963  0.765E-01  0.255E-01  0.255E-01  0.255E-01
  -1.953  0.673E-01  0.224E-01  0.224E-01  0.224E-01
  -1.943  0.585E-01  0.195E-01  0.195E-01  0.195E-01
  -1.933  0.503E-01  0.168E-01  0.168E-01  0.168E-01
  -1.923  0.428E-01  0.143E-01  0.143E-01  0.143E-01
  -1.913  0.361E-01  0.120E-01  0.120E-01  0.120E-01
  -1.903  0.300E-01  0.100E-01  0.100E-01  0.100E-01
  -1.893  0.247E-01  0.824E-02  0.824E-02  0.824E-02
  -1.883  0.202E-01  0.672E-02  0.672E-02  0.672E-02
  -1.873  0.163E-01  0.542E-02  0.542E-02  0.542E-02
  -1.863  0.130E-01  0.432E-02  0.432E-02  0.432E-02
  -1.853  0.102E-01  0.341E-02  0.341E-02  0.341E-02
  -1.843  0.798E-02  0.266E-02  0.266E-02  0.266E-02
  -1.833  0.617E-02  0.206E-02  0.206E-02  0.206E-02
  -1.823  0.471E-02  0.157E-02  0.157E-02  0.157E-02
  -1.813  0.357E-02  0.119E-02  0.119E-02  0.119E-02
  -1.803  0.267E-02  0.892E-03  0.892E-03  0.892E-03
  -1.793  0.199E-02  0.663E-03  0.663E-03  0.663E-03
  -1.783  0.148E-02  0.492E-03  0.492E-03  0.492E-03
  -1.773  0.110E-02  0.366E-03  0.366E-03  0.366E-03
  -1.763  0.830E-03  0.277E-03  0.277E-03  0.277E-03
  -1.753  0.653E-03  0.218E-03  0.218E-03  0.218E-03
  -1.743  0.555E-03  0.185E-03  0.185E-03  0.185E-03
  -1.733  0.526E-03  0.175E-03  0.175E-03  0.175E-03
  -1.723  0.565E-03  0.188E-03  0.188E-03  0.188E-03
  -1.713  0.675E-03  0.225E-03  0.225E-03  0.225E-03
  -1.703  0.864E-03  0.288E-03  0.288E-03  0.288E-03
  -1.693  0.115E-02  0.383E-03  0.383E-03  0.383E-03
  -1.683  0.155E-02  0.516E-03  0.516E-03  0.516E-03
  -1.673  0.209E-02  0.696E-03  0.696E-03  0.696E-03
  -1.663  0.281E-02  0.936E-03  0.936E-03  0.936E-03
  -1.653  0.374E-02  0.125E-02  0.125E-02  0.125E-02
  -1.643  0.495E-02  0.165E-02  0.165E-02  0.165E-02
  -1.633  0.647E-02  0.216E-02  0.216E-02  0.216E-02
  -1.623  0.837E-02  0.279E-02  0.279E-02  0.279E-02
  -1.613  0.107E-01  0.357E-02  0.357E-02  0.357E-02
  -1.603  0.136E-01  0.453E-02  0.453E-02  0.453E-02
  -1.593  0.170E-01  0.567E-02  0.567E-02  0.567E-02
  -1.583  0.211E-01  0.703E-02  0.703E-02  0.703E-02
  -1.573  0.259E-01  0.863E-02  0.863E-02  0.863E-02
  -1.563  0.314E-01  0.105E-01  0.105E-01  0.105E-01
  -1.553  0.377E-01  0.126E-01  0.126E-01  0.126E-01
  -1.543  0.448E-01  0.149E-01  0.149E-01  0.149E-01
  -1.533  0.526E-01  0.175E-01  0.175E-01  0.175E-01
  -1.523  0.611E-01  0.204E-01  0.204E-01  0.204E-01
  -1.513  0.702E-01  0.234E-01  0.234E-01  0.234E-01
  -1.503  0.799E-01  0.266E-01  0.266E-01  0.266E-01
  -1.493  0.899E-01  0.300E-01  0.300E-01  0.300E-01
  -1.483  0.100E+00  0.333E-01  0.333E-01  0.333E-01
  -1.473  0.110E+00  0.367E-01  0.367E-01  0.367E-01
  -1.463  0.120E+00  0.400E-01  0.400E-01  0.400E-01
  -1.453  0.129E+00  0.431E-01  0.431E-01  0.431E-01
  -1.443  0.138E+00  0.459E-01  0.459E-01  0.459E-01
  -1.433  0.145E+00  0.484E-01  0.484E-01  0.484E-01
  -1.423  0.151E+00  0.505E-01  0.505E-01  0.505E-01
  -1.413  0.156E+00  0.521E-01  0.521E-01  0.521E-01
  -1.403  0.159E+00  0.532E-01  0.532E-01  0.532E-01
  -1.393  0.161E+00  0.537E-01  0.537E-01  0.537E-01
  -1.383  0.161E+00  0.536E-01  0.536E-01  0.536E-01
  -1.373  0.159E+00  0.530E-01  0.530E-01  0.530E-01
  -1.363  0.155E+00  0.518E-01  0.518E-01  0.518E-01
  -1.353  0.150E+00  0.501E-01  0.501E-01  0.501E-01
  -1.343  0.144E+00  0.479E-01  0.479E-01  0.479E-01
  -1.333  0.136E+00  0.453E-01  0.453E-01  0.453E-01
  -1.323  0.127E+00  0.425E-01  0.425E-01  0.425E-01
  -1.313  0.118E+00  0.393E-01  0.393E-01  0.393E-01
  -1.303  0.108E+00  0.360E-01  0.360E-01  0.360E-01
  -1.293  0.979E-01  0.326E-01  0.326E-01  0.326E-01
  -1.283  0.878E-01  0.293E-01  0.293E-01  0.293E-01
  -1.273  0.779E-01  0.260E-01  0.260E-01  0.260E-01
  -1.263  0.683E-01  0.228E-01  0.228E-01  0.228E-01
  -1.253  0.593E-01  0.198E-01  0.198E-01  0.198E-01
  -1.243  0.509E-01  0.170E-01  0.170E-01  0.170E-01
  -1.233  0.433E-01  0.144E-01  0.144E-01  0.144E-01
  -1.223  0.364E-01  0.121E-01  0.121E-01  0.121E-01
  -1.213  0.302E-01  0.101E-01  0.101E-01  0.101E-01
  -1.203  0.249E-01  0.829E-02  0.829E-02  0.829E-02
  -1.193  0.202E-01  0.674E-02  0.674E-02  0.674E-02
  -1.183  0.163E-01  0.543E-02  0.543E-02  0.543E-02
  -1.173  0.130E-01  0.432E-02  0.432E-02  0.432E-02
  -1.163  0.102E-01  0.340E-02  0.340E-02  0.340E-02
  -1.153  0.795E-02  0.265E-02  0.265E-02  0.265E-02
  -1.143  0.613E-02  0.204E-02  0.204E-02  0.204E-02
  -1.133  0.467E-02  0.156E-02  0.156E-02  0.156E-02
  -1.123  0.353E-02  0.118E-02  0.118E-02  0.118E-02
  -1.113  0.263E-02  0.877E-03  0.877E-03  0.877E-03
  -1.103  0.194E-02  0.648E-03  0.648E-03  0.648E-03
  -1.093  0.142E-02  0.474E-03  0.474E-03  0.474E-03
  -1.083  0.103E-02  0.344E-03  0.344E-03  0.344E-03
  -1.073  0.746E-03  0.249E-03  0.249E-03  0.249E-03
  -1.063  0.540E-03  0.180E-03  0.180E-03  0.180E-03
  -1.053  0.397E-03  0.132E-03  0.132E-03  0.132E-03
  -1.043  0.304E-03  0.101E-03  0.101E-03  0.101E-03
  -1.033  0.252E-03  0.840E-04  0.840E-04  0.840E-04
  -1.023  0.236E-03  0.788E-04  0.788E-04  0.788E-04
  -1.013  0.255E-03  0.852E-04  0.852E-04  0.852E-04
  -1.003  0.311E-03  0.104E-03  0.104E-03  0.104E-03
  -0.993  0.409E-03  0.136E-03  0.136E-03  0.136E-03
  -0.983  0.559E-03  0.186E-03  0.186E-03  0.186E-03
  -0.973  0.773E-03  0.258E-03  0.258E-03  0.258E-03
  -0.963  0.107E-02  0.357E-03  0.357E-03  0.357E-03
  -0.953  0.148E-02  0.492E-03  0.492E-03  0.492E-03
  -0.943  0.202E-02  0.673E-03  0.673E-03  0.673E-03
  -0.933  0.273E-02  0.910E-03  0.910E-03  0.910E-03
  -0.923  0.366E-02  0.122E-02  0.122E-02  0.122E-02
  -0.913  0.485E-02  0.162E-02  0.162E-02  0.162E-02
  -0.903  0.636E-02  0.212E-02  0.212E-02  0.212E-02
  -0.893  0.825E-02  0.275E-02  0.275E-02  0.275E-02
  -0.883  0.106E-01  0.353E-02  0.353E-02  0.353E-02
  -0.873  0.134E-01  0.448E-02  0.448E-02  0.448E-02
  -0.863  0.169E-01  0.563E-02  0.563E-02  0.563E-02
  -0.853  0.210E-01  0.699E-02  0.699E-02  0.699E-02
  -0.843  0.258E-01  0.859E-02  0.859E-02  0.859E-02
  -0.833  0.313E-01  0.104E-01  0.104E-01  0.104E-01
  -0.823  0.377E-01  0.126E-01  0.126E-01  0.126E-01
  -0.813  0.449E-01  0.150E-01  0.150E-01  0.150E-01
  -0.803  0.528E-01  0.176E-01  0.176E-01  0.176E-01
  -0.793  0.615E-01  0.205E-01  0.205E-01  0.205E-01
  -0.783  0.709E-01  0.236E-01  0.236E-01  0.236E-01
  -0.773  0.808E-01  0.269E-01  0.269E-01  0.269E-01
  -0.763  0.910E-01  0.303E-01  0.303E-01  0.303E-01
  -0.753  0.102E+00  0.338E-01  0.338E-01  0.338E-01
  -0.743  0.112E+00  0.373E-01  0.373E-01  0.373E-01
  -0.733  0.122E+00  0.408E-01  0.408E-01  0.408E-01
  -0.723  0.132E+00  0.440E-01  0.440E-01  0.440E-01
  -0.713  0.141E+00  0.470E-01  0.470E-01  0.470E-01
  -0.703  0.149E+00  0.497E-01  0.497E-01  0.497E-01
  -0.693  0.156E+00  0.519E-01  0.519E-01  0.519E-01
  -0.683  0.161E+00  0.537E-01  0.537E-01  0.537E-01
  -0.673  0.165E+00  0.549E-01  0.549E-01  0.549E-01
  -0.663  0.167E+00  0.555E-01  0.555E-01  0.555E-01
  -0.653  0.167E+00  0.556E-01  0.556E-01  0.556E-01
  -0.643  0.165E+00  0.551E-01  0.551E-01  0.551E-01
  -0.633  0.162E+00  0.539E-01  0.539E-01  0.539E-01
  -0.623  0.157E+00  0.523E-01  0.523E-01  0.523E-01
  -0.613  0.150E+00  0.501E-01  0.501E-01  0.501E-01
  -0.603  0.143E+00  0.475E-01  0.475E-01  0.475E-01
  -0.593  0.134E+00  0.446E-01  0.446E-01  0.446E-01
  -0.583  0.124E+00  0.414E-01  0.414E-01  0.414E-01
  -0.573  0.114E+00  0.380E-01  0.380E-01  0.380E-01
  -0.563  0.104E+00  0.345E-01  0.345E-01  0.345E-01
  -0.553  0.930E-01  0.310E-01  0.310E-01  0.310E-01
  -0.543  0.827E-01  0.276E-01  0.276E-01  0.276E-01
  -0.533  0.727E-01  0.242E-01  0.242E-01  0.242E-01
  -0.523  0.633E-01  0.211E-01  0.211E-01  0.211E-01
  -0.513  0.544E-01  0.181E-01  0.181E-01  0.181E-01
  -0.503  0.463E-01  0.154E-01  0.154E-01  0.154E-01
  -0.493  0.390E-01  0.130E-01  0.130E-01  0.130E-01
  -0.483  0.325E-01  0.108E-01  0.108E-01  0.108E-01
  -0.473  0.268E-01  0.893E-02  0.893E-02  0.893E-02
  -0.463  0.218E-01  0.728E-02  0.728E-02  0.728E-02
  -0.453  0.176E-01  0.587E-02  0.587E-02  0.587E-02
  -0.443  0.141E-01  0.469E-02  0.469E-02  0.469E-02
  -0.433  0.111E-01  0.370E-02  0.370E-02  0.370E-02
  -0.423  0.866E-02  0.289E-02  0.289E-02  0.289E-02
  -0.413  0.669E-02  0.223E-02  0.223E-02  0.223E-02
  -0.403  0.511E-02  0.170E-02  0.170E-02  0.170E-02
  -0.393  0.386E-02  0.129E-02  0.129E-02  0.129E-02
  -0.383  0.289E-02  0.963E-03  0.963E-03  0.963E-03
  -0.373  0.214E-02  0.713E-03  0.713E-03  0.713E-03
  -0.363  0.156E-02  0.522E-03  0.522E-03  0.522E-03
  -0.353  0.113E-02  0.378E-03  0.378E-03  0.378E-03
  -0.343  0.813E-03  0.271E-03  0.271E-03  0.271E-03
  -0.333  0.579E-03  0.193E-03  0.193E-03  0.193E-03
  -0.323  0.409E-03  0.136E-03  0.136E-03  0.136E-03
  -0.313  0.290E-03  0.966E-04  0.966E-04  0.966E-04
  -0.303  0.208E-03  0.693E-04  0.693E-04  0.693E-04
  -0.293  0.156E-03  0.519E-04  0.519E-04  0.519E-04
  -0.283  0.127E-03  0.423E-04  0.423E-04  0.423E-04
  -0.273  0.118E-03  0.395E-04  0.395E-04  0.395E-04
  -0.263  0.129E-03  0.431E-04  0.431E-04  0.431E-04
  -0.253  0.161E-03  0.535E-04  0.535E-04  0.535E-04
  -0.243  0.216E-03  0.720E-04  0.720E-04  0.720E-04
  -0.233  0.302E-03  0.101E-03  0.101E-03  0.101E-03
  -0.223  0.427E-03  0.142E-03  0.142E-03  0.142E-03
  -0.213  0.604E-03  0.201E-03  0.201E-03  0.201E-03
  -0.203  0.850E-03  0.283E-03  0.283E-03  0.283E-03
  -0.193  0.118E-02  0.395E-03  0.395E-03  0.395E-03
  -0.183  0.163E-02  0.545E-03  0.545E-03  0.545E-03
  -0.173  0.223E-02  0.744E-03  0.744E-03  0.744E-03
  -0.163  0.302E-02  0.101E-02  0.101E-02  0.101E-02
  -0.153  0.403E-02  0.134E-02  0.134E-02  0.134E-02
  -0.143  0.533E-02  0.178E-02  0.178E-02  0.178E-02
  -0.133  0.698E-02  0.233E-02  0.233E-02  0.233E-02
  -0.123  0.903E-02  0.301E-02  0.301E-02  0.301E-02
  -0.113  0.116E-01  0.385E-02  0.385E-02  0.385E-02
  -0.103  0.146E-01  0.488E-02  0.488E-02  0.488E-02
  -0.093  0.184E-01  0.612E-02  0.612E-02  0.612E-02
  -0.083  0.228E-01  0.758E-02  0.758E-02  0.758E-02
  -0.073  0.279E-01  0.930E-02  0.930E-02  0.930E-02
  -0.063  0.338E-01  0.113E-01  0.113E-01  0.113E-01
  -0.053  0.406E-01  0.135E-01  0.135E-01  0.135E-01
  -0.043  0.482E-01  0.161E-01  0.161E-01  0.161E-01
  -0.033  0.566E-01  0.189E-01  0.189E-01  0.189E-01
  -0.023  0.658E-01  0.219E-01  0.219E-01  0.219E-01
  -0.013  0.756E-01  0.252E-01  0.252E-01  0.252E-01
  -0.003  0.860E-01  0.287E-01  0.287E-01  0.287E-01
   0.007  0.967E-01  0.322E-01  0.322E-01  0.322E-01
   0.017  0.108E+00  0.359E-01  0.359E-01  0.359E-01
   0.027  0.118E+00  0.395E-01  0.395E-01  0.395E-01
   0.037  0.129E+00  0.430E-01  0.430E-01  0.430E-01
   0.047  0.139E+00  0.463E-01  0.463E-01  0.463E-01
   0.057  0.148E+00  0.493E-01  0.493E-01  0.493E-01
   0.067  0.156E+00  0.520E-01  0.520E-01  0.520E-01
   0.077  0.163E+00  0.542E-01  0.542E-01  0.542E-01
   0.087  0.168E+00  0.559E-01  0.559E-01  0.559E-01
   0.097  0.171E+00  0.571E-01  0.571E-01  0.571E-01
   0.107  0.173E+00  0.576E-01  0.576E-01  0.576E-01
   0.117  0.173E+00  0.576E-01  0.576E-01  0.576E-01
   0.127  0.171E+00  0.569E-01  0.569E-01  0.569E-01
   0.137  0.167E+00  0.556E-01  0.556E-01  0.556E-01
   0.147  0.161E+00  0.537E-01  0.537E-01  0.537E-01
   0.157  0.154E+00  0.514E-01  0.514E-01  0.514E-01
   0.167  0.146E+00  0.486E-01  0.486E-01  0.486E-01
   0.177  0.137E+00  0.455E-01  0.455E-01  0.455E-01
   0.187  0.126E+00  0.421E-01  0.421E-01  0.421E-01
   0.197  0.116E+00  0.386E-01  0.386E-01  0.386E-01
   0.207  0.105E+00  0.350E-01  0.350E-01  0.350E-01
   0.217  0.941E-01  0.314E-01  0.314E-01  0.314E-01
   0.227  0.834E-01  0.278E-01  0.278E-01  0.278E-01
   0.237  0.732E-01  0.244E-01  0.244E-01  0.244E-01
   0.247  0.635E-01  0.212E-01  0.212E-01  0.212E-01
   0.257  0.545E-01  0.182E-01  0.182E-01  0.182E-01
   0.267  0.463E-01  0.154E-01  0.154E-01  0.154E-01
   0.277  0.389E-01  0.130E-01  0.130E-01  0.130E-01
   0.287  0.323E-01  0.108E-01  0.108E-01  0.108E-01
   0.297  0.266E-01  0.886E-02  0.886E-02  0.886E-02
   0.307  0.216E-01  0.721E-02  0.721E-02  0.721E-02
   0.317  0.174E-01  0.580E-02  0.580E-02  0.580E-02
   0.327  0.138E-01  0.462E-02  0.462E-02  0.462E-02
   0.337  0.109E-01  0.364E-02  0.364E-02  0.364E-02
   0.347  0.850E-02  0.283E-02  0.283E-02  0.283E-02
   0.357  0.655E-02  0.218E-02  0.218E-02  0.218E-02
   0.367  0.499E-02  0.166E-02  0.166E-02  0.166E-02
   0.377  0.376E-02  0.125E-02  0.125E-02  0.125E-02
   0.387  0.281E-02  0.936E-03  0.936E-03  0.936E-03
   0.397  0.207E-02  0.691E-03  0.691E-03  0.691E-03
   0.407  0.151E-02  0.504E-03  0.504E-03  0.504E-03
   0.417  0.109E-02  0.364E-03  0.364E-03  0.364E-03
   0.427  0.781E-03  0.260E-03  0.260E-03  0.260E-03
   0.437  0.553E-03  0.184E-03  0.184E-03  0.184E-03
   0.447  0.388E-03  0.129E-03  0.129E-03  0.129E-03
   0.457  0.270E-03  0.901E-04  0.901E-04  0.901E-04
   0.467  0.188E-03  0.627E-04  0.627E-04  0.627E-04
   0.477  0.132E-03  0.441E-04  0.441E-04  0.441E-04
   0.487  0.966E-04  0.322E-04  0.322E-04  0.322E-04
   0.497  0.764E-04  0.255E-04  0.255E-04  0.255E-04
   0.507  0.693E-04  0.231E-04  0.231E-04  0.231E-04
   0.517  0.744E-04  0.248E-04  0.248E-04  0.248E-04
   0.527  0.923E-04  0.308E-04  0.308E-04  0.308E-04
   0.537  0.125E-03  0.418E-04  0.418E-04  0.418E-04
   0.547  0.178E-03  0.592E-04  0.592E-04  0.592E-04
   0.557  0.255E-03  0.851E-04  0.851E-04  0.851E-04
   0.567  0.367E-03  0.122E-03  0.122E-03  0.122E-03
   0.577  0.525E-03  0.175E-03  0.175E-03  0.175E-03
   0.587  0.743E-03  0.248E-03  0.248E-03  0.248E-03
   0.597  0.104E-02  0.348E-03  0.348E-03  0.348E-03
   0.607  0.145E-02  0.482E-03  0.482E-03  0.482E-03
   0.617  0.199E-02  0.663E-03  0.663E-03  0.663E-03
   0.627  0.270E-02  0.900E-03  0.900E-03  0.900E-03
   0.637  0.363E-02  0.121E-02  0.121E-02  0.121E-02
   0.647  0.483E-02  0.161E-02  0.161E-02  0.161E-02
   0.657  0.635E-02  0.212E-02  0.212E-02  0.212E-02
   0.667  0.826E-02  0.275E-02  0.275E-02  0.275E-02
   0.677  0.106E-01  0.355E-02  0.355E-02  0.355E-02
   0.687  0.135E-01  0.452E-02  0.452E-02  0.452E-02
   0.697  0.171E-01  0.569E-02  0.569E-02  0.569E-02
   0.707  0.213E-01  0.709E-02  0.709E-02  0.709E-02
   0.717  0.262E-01  0.874E-02  0.874E-02  0.874E-02
   0.727  0.320E-01  0.107E-01  0.107E-01  0.107E-01
   0.737  0.386E-01  0.129E-01  0.129E-01  0.129E-01
   0.747  0.461E-01  0.154E-01  0.154E-01  0.154E-01
   0.757  0.544E-01  0.181E-01  0.181E-01  0.181E-01
   0.767  0.635E-01  0.212E-01  0.212E-01  0.212E-01
   0.777  0.734E-01  0.245E-01  0.245E-01  0.245E-01
   0.787  0.839E-01  0.280E-01  0.280E-01  0.280E-01
   0.797  0.949E-01  0.316E-01  0.316E-01  0.316E-01
   0.807  0.106E+00  0.354E-01  0.354E-01  0.354E-01
   0.817  0.117E+00  0.391E-01  0.391E-01  0.391E-01
   0.827  0.129E+00  0.429E-01  0.429E-01  0.429E-01
   0.837  0.139E+00  0.464E-01  0.464E-01  0.464E-01
   0.847  0.149E+00  0.497E-01  0.497E-01  0.497E-01
   0.857  0.158E+00  0.527E-01  0.527E-01  0.527E-01
   0.867  0.166E+00  0.552E-01  0.552E-01  0.552E-01
   0.877  0.172E+00  0.573E-01  0.573E-01  0.573E-01
   0.887  0.176E+00  0.588E-01  0.588E-01  0.588E-01
   0.897  0.179E+00  0.597E-01  0.597E-01  0.597E-01
   0.907  0.180E+00  0.599E-01  0.599E-01  0.599E-01
   0.917  0.179E+00  0.595E-01  0.595E-01  0.595E-01
   0.927  0.175E+00  0.585E-01  0.585E-01  0.585E-01
   0.937  0.171E+00  0.568E-01  0.568E-01  0.568E-01
   0.947  0.164E+00  0.547E-01  0.547E-01  0.547E-01
   0.957  0.156E+00  0.520E-01  0.520E-01  0.520E-01
   0.967  0.147E+00  0.489E-01  0.489E-01  0.489E-01
   0.977  0.137E+00  0.456E-01  0.456E-01  0.456E-01
   0.987  0.126E+00  0.419E-01  0.419E-01  0.419E-01
   0.997  0.115E+00  0.382E-01  0.382E-01  0.382E-01
   1.007  0.103E+00  0.344E-01  0.344E-01  0.344E-01
   1.017  0.921E-01  0.307E-01  0.307E-01  0.307E-01
   1.027  0.813E-01  0.271E-01  0.271E-01  0.271E-01
   1.037  0.709E-01  0.236E-01  0.236E-01  0.236E-01
   1.047  0.612E-01  0.204E-01  0.204E-01  0.204E-01
   1.057  0.523E-01  0.174E-01  0.174E-01  0.174E-01
   1.067  0.441E-01  0.147E-01  0.147E-01  0.147E-01
   1.077  0.369E-01  0.123E-01  0.123E-01  0.123E-01
   1.087  0.305E-01  0.102E-01  0.102E-01  0.102E-01
   1.097  0.249E-01  0.831E-02  0.831E-02  0.831E-02
   1.107  0.202E-01  0.672E-02  0.672E-02  0.672E-02
   1.117  0.161E-01  0.538E-02  0.538E-02  0.538E-02
   1.127  0.128E-01  0.426E-02  0.426E-02  0.426E-02
   1.137  0.100E-01  0.334E-02  0.334E-02  0.334E-02
   1.147  0.775E-02  0.258E-02  0.258E-02  0.258E-02
   1.157  0.594E-02  0.198E-02  0.198E-02  0.198E-02
   1.167  0.450E-02  0.150E-02  0.150E-02  0.150E-02
   1.177  0.338E-02  0.113E-02  0.113E-02  0.113E-02
   1.187  0.251E-02  0.836E-03  0.836E-03  0.836E-03
   1.197  0.184E-02  0.613E-03  0.613E-03  0.613E-03
   1.207  0.134E-02  0.445E-03  0.445E-03  0.445E-03
   1.217  0.960E-03  0.320E-03  0.320E-03  0.320E-03
   1.227  0.682E-03  0.227E-03  0.227E-03  0.227E-03
   1.237  0.480E-03  0.160E-03  0.160E-03  0.160E-03
   1.247  0.335E-03  0.112E-03  0.112E-03  0.112E-03
   1.257  0.231E-03  0.771E-04  0.771E-04  0.771E-04
   1.267  0.159E-03  0.530E-04  0.530E-04  0.530E-04
   1.277  0.110E-03  0.367E-04  0.367E-04  0.367E-04
   1.287  0.780E-04  0.260E-04  0.260E-04  0.260E-04
   1.297  0.588E-04  0.196E-04  0.196E-04  0.196E-04
   1.307  0.499E-04  0.166E-04  0.166E-04  0.166E-04
   1.317  0.502E-04  0.167E-04  0.167E-04  0.167E-04
   1.327  0.597E-04  0.199E-04  0.199E-04  0.199E-04
   1.337  0.796E-04  0.265E-04  0.265E-04  0.265E-04
   1.347  0.113E-03  0.376E-04  0.376E-04  0.376E-04
   1.357  0.163E-03  0.545E-04  0.545E-04  0.545E-04
   1.367  0.238E-03  0.792E-04  0.792E-04  0.792E-04
   1.377  0.344E-03  0.115E-03  0.115E-03  0.115E-03
   1.387  0.494E-03  0.165E-03  0.165E-03  0.165E-03
   1.397  0.702E-03  0.234E-03  0.234E-03  0.234E-03
   1.407  0.989E-03  0.330E-03  0.330E-03  0.330E-03
   1.417  0.138E-02  0.459E-03  0.459E-03  0.459E-03
   1.427  0.190E-02  0.632E-03  0.632E-03  0.632E-03
   1.437  0.259E-02  0.862E-03  0.862E-03  0.862E-03
   1.447  0.349E-02  0.116E-02  0.116E-02  0.116E-02
   1.457  0.465E-02  0.155E-02  0.155E-02  0.155E-02
   1.467  0.613E-02  0.204E-02  0.204E-02  0.204E-02
   1.477  0.801E-02  0.267E-02  0.267E-02  0.267E-02
   1.487  0.103E-01  0.345E-02  0.345E-02  0.345E-02
   1.497  0.132E-01  0.440E-02  0.440E-02  0.440E-02
   1.507  0.167E-01  0.556E-02  0.556E-02  0.556E-02
   1.517  0.209E-01  0.696E-02  0.696E-02  0.696E-02
   1.527  0.258E-01  0.860E-02  0.860E-02  0.860E-02
   1.537  0.316E-01  0.105E-01  0.105E-01  0.105E-01
   1.547  0.382E-01  0.127E-01  0.127E-01  0.127E-01
   1.557  0.457E-01  0.152E-01  0.152E-01  0.152E-01
   1.567  0.542E-01  0.181E-01  0.181E-01  0.181E-01
   1.577  0.635E-01  0.212E-01  0.212E-01  0.212E-01
   1.587  0.736E-01  0.245E-01  0.245E-01  0.245E-01
   1.597  0.844E-01  0.281E-01  0.281E-01  0.281E-01
   1.607  0.957E-01  0.319E-01  0.319E-01  0.319E-01
   1.617  0.107E+00  0.358E-01  0.358E-01  0.358E-01
   1.627  0.119E+00  0.397E-01  0.397E-01  0.397E-01
   1.637  0.131E+00  0.436E-01  0.436E-01  0.436E-01
   1.647  0.142E+00  0.474E-01  0.474E-01  0.474E-01
   1.657  0.153E+00  0.509E-01  0.509E-01  0.509E-01
   1.667  0.162E+00  0.541E-01  0.541E-01  0.541E-01
   1.677  0.171E+00  0.569E-01  0.569E-01  0.569E-01
   1.687  0.178E+00  0.592E-01  0.592E-01  0.592E-01
   1.697  0.183E+00  0.610E-01  0.610E-01  0.610E-01
   1.707  0.186E+00  0.621E-01  0.621E-01  0.621E-01
   1.717  0.188E+00  0.625E-01  0.625E-01  0.625E-01
   1.727  0.187E+00  0.623E-01  0.623E-01  0.623E-01
   1.737  0.184E+00  0.614E-01  0.614E-01  0.614E-01
   1.747  0.180E+00  0.599E-01  0.599E-01  0.599E-01
   1.757  0.173E+00  0.577E-01  0.577E-01  0.577E-01
   1.767  0.165E+00  0.551E-01  0.551E-01  0.551E-01
   1.777  0.156E+00  0.520E-01  0.520E-01  0.520E-01
   1.787  0.146E+00  0.486E-01  0.486E-01  0.486E-01
   1.797  0.135E+00  0.449E-01  0.449E-01  0.449E-01
   1.807  0.123E+00  0.410E-01  0.410E-01  0.410E-01
   1.817  0.111E+00  0.371E-01  0.371E-01  0.371E-01
   1.827  0.995E-01  0.332E-01  0.332E-01  0.332E-01
   1.837  0.880E-01  0.293E-01  0.293E-01  0.293E-01
   1.847  0.770E-01  0.257E-01  0.257E-01  0.257E-01
   1.857  0.667E-01  0.222E-01  0.222E-01  0.222E-01
   1.867  0.571E-01  0.190E-01  0.190E-01  0.190E-01
   1.877  0.484E-01  0.161E-01  0.161E-01  0.161E-01
   1.887  0.406E-01  0.135E-01  0.135E-01  0.135E-01
   1.897  0.336E-01  0.112E-01  0.112E-01  0.112E-01
   1.907  0.276E-01  0.920E-02  0.920E-02  0.920E-02
   1.917  0.224E-01  0.746E-02  0.746E-02  0.746E-02
   1.927  0.180E-01  0.599E-02  0.599E-02  0.599E-02
   1.937  0.143E-01  0.476E-02  0.476E-02  0.476E-02
   1.947  0.112E-01  0.374E-02  0.374E-02  0.374E-02
   1.957  0.871E-02  0.290E-02  0.290E-02  0.290E-02
   1.967  0.670E-02  0.223E-02  0.223E-02  0.223E-02
   1.977  0.509E-02  0.170E-02  0.170E-02  0.170E-02
   1.987  0.383E-02  0.128E-02  0.128E-02  0.128E-02
   1.997  0.285E-02  0.951E-03  0.951E-03  0.951E-03
   2.007  0.210E-02  0.700E-03  0.700E-03  0.700E-03
   2.017  0.153E-02  0.510E-03  0.510E-03  0.510E-03
   2.027  0.110E-02  0.367E-03  0.367E-03  0.367E-03
   2.037  0.786E-03  0.262E-03  0.262E-03  0.262E-03
   2.047  0.554E-03  0.185E-03  0.185E-03  0.185E-03
   2.057  0.387E-03  0.129E-03  0.129E-03  0.129E-03
   2.067  0.268E-03  0.892E-04  0.892E-04  0.892E-04
   2.077  0.184E-03  0.613E-04  0.613E-04  0.613E-04
   2.087  0.126E-03  0.420E-04  0.420E-04  0.420E-04
   2.097  0.870E-04  0.290E-04  0.290E-04  0.290E-04
   2.107  0.621E-04  0.207E-04  0.207E-04  0.207E-04
   2.117  0.479E-04  0.160E-04  0.160E-04  0.160E-04
   2.127  0.425E-04  0.142E-04  0.142E-04  0.142E-04
   2.137  0.450E-04  0.150E-04  0.150E-04  0.150E-04
   2.147  0.560E-04  0.187E-04  0.187E-04  0.187E-04
   2.157  0.768E-04  0.256E-04  0.256E-04  0.256E-04
   2.167  0.110E-03  0.368E-04  0.368E-04  0.368E-04
   2.177  0.161E-03  0.537E-04  0.537E-04  0.537E-04
   2.187  0.236E-03  0.785E-04  0.785E-04  0.785E-04
   2.197  0.342E-03  0.114E-03  0.114E-03  0.114E-03
   2.207  0.492E-03  0.164E-03  0.164E-03  0.164E-03
   2.217  0.701E-03  0.234E-03  0.234E-03  0.234E-03
   2.227  0.988E-03  0.329E-03  0.329E-03  0.329E-03
   2.237  0.138E-02  0.459E-03  0.459E-03  0.459E-03
   2.247  0.190E-02  0.634E-03  0.634E-03  0.634E-03
   2.257  0.260E-02  0.866E-03  0.866E-03  0.866E-03
   2.267  0.351E-02  0.117E-02  0.117E-02  0.117E-02
   2.277  0.469E-02  0.156E-02  0.156E-02  0.156E-02
   2.287  0.619E-02  0.206E-02  0.206E-02  0.206E-02
   2.297  0.810E-02  0.270E-02  0.270E-02  0.270E-02
   2.307  0.105E-01  0.349E-02  0.349E-02  0.349E-02
   2.317  0.134E-01  0.447E-02  0.447E-02  0.447E-02
   2.327  0.170E-01  0.565E-02  0.565E-02  0.565E-02
   2.337  0.212E-01  0.708E-02  0.708E-02  0.708E-02
   2.347  0.263E-01  0.877E-02  0.877E-02  0.877E-02
   2.357  0.322E-01  0.107E-01  0.107E-01  0.107E-01
   2.367  0.391E-01  0.130E-01  0.130E-01  0.130E-01
   2.377  0.468E-01  0.156E-01  0.156E-01  0.156E-01
   2.387  0.556E-01  0.185E-01  0.185E-01  0.185E-01
   2.397  0.652E-01  0.217E-01  0.217E-01  0.217E-01
   2.407  0.757E-01  0.252E-01  0.252E-01  0.252E-01
   2.417  0.870E-01  0.290E-01  0.290E-01  0.290E-01
   2.427  0.988E-01  0.329E-01  0.329E-01  0.329E-01
   2.437  0.111E+00  0.370E-01  0.370E-01  0.370E-01
   2.447  0.123E+00  0.412E-01  0.412E-01  0.412E-01
   2.457  0.136E+00  0.453E-01  0.453E-01  0.453E-01
   2.467  0.148E+00  0.492E-01  0.492E-01  0.492E-01
   2.477  0.159E+00  0.530E-01  0.530E-01  0.530E-01
   2.487  0.169E+00  0.564E-01  0.564E-01  0.564E-01
   2.497  0.178E+00  0.595E-01  0.595E-01  0.595E-01
   2.507  0.186E+00  0.620E-01  0.620E-01  0.620E-01
   2.517  0.192E+00  0.639E-01  0.639E-01  0.639E-01
   2.527  0.195E+00  0.651E-01  0.651E-01  0.651E-01
   2.537  0.197E+00  0.657E-01  0.657E-01  0.657E-01
   2.547  0.197E+00  0.656E-01  0.656E-01  0.656E-01
   2.557  0.194E+00  0.647E-01  0.647E-01  0.647E-01
   2.567  0.190E+00  0.632E-01  0.632E-01  0.632E-01
   2.577  0.183E+00  0.611E-01  0.611E-01  0.611E-01
   2.587  0.175E+00  0.584E-01  0.584E-01  0.584E-01
   2.597  0.166E+00  0.552E-01  0.552E-01  0.552E-01
   2.607  0.155E+00  0.516E-01  0.516E-01  0.516E-01
   2.617  0.143E+00  0.478E-01  0.478E-01  0.478E-01
   2.627  0.131E+00  0.437E-01  0.437E-01  0.437E-01
   2.637  0.119E+00  0.396E-01  0.396E-01  0.396E-01
   2.647  0.106E+00  0.355E-01  0.355E-01  0.355E-01
   2.657  0.943E-01  0.314E-01  0.314E-01  0.314E-01
   2.667  0.827E-01  0.276E-01  0.276E-01  0.276E-01
   2.677  0.717E-01  0.239E-01  0.239E-01  0.239E-01
   2.687  0.615E-01  0.205E-01  0.205E-01  0.205E-01
   2.697  0.522E-01  0.174E-01  0.174E-01  0.174E-01
   2.707  0.438E-01  0.146E-01  0.146E-01  0.146E-01
   2.717  0.364E-01  0.121E-01  0.121E-01  0.121E-01
   2.727  0.299E-01  0.996E-02  0.996E-02  0.996E-02
   2.737  0.243E-01  0.810E-02  0.810E-02  0.810E-02
   2.747  0.195E-01  0.651E-02  0.651E-02  0.651E-02
   2.757  0.155E-01  0.518E-02  0.518E-02  0.518E-02
   2.767  0.122E-01  0.408E-02  0.408E-02  0.408E-02
   2.777  0.952E-02  0.317E-02  0.317E-02  0.317E-02
   2.787  0.733E-02  0.244E-02  0.244E-02  0.244E-02
   2.797  0.558E-02  0.186E-02  0.186E-02  0.186E-02
   2.807  0.421E-02  0.140E-02  0.140E-02  0.140E-02
   2.817  0.314E-02  0.105E-02  0.105E-02  0.105E-02
   2.827  0.231E-02  0.771E-03  0.771E-03  0.771E-03
   2.837  0.169E-02  0.562E-03  0.562E-03  0.562E-03
   2.847  0.122E-02  0.406E-03  0.406E-03  0.406E-03
   2.857  0.870E-03  0.290E-03  0.290E-03  0.290E-03
   2.867  0.614E-03  0.205E-03  0.205E-03  0.205E-03
   2.877  0.430E-03  0.143E-03  0.143E-03  0.143E-03
   2.887  0.298E-03  0.992E-04  0.992E-04  0.992E-04
   2.897  0.205E-03  0.682E-04  0.682E-04  0.682E-04
   2.907  0.140E-03  0.467E-04  0.467E-04  0.467E-04
   2.917  0.967E-04  0.322E-04  0.322E-04  0.322E-04
   2.927  0.687E-04  0.229E-04  0.229E-04  0.229E-04
   2.937  0.524E-04  0.175E-04  0.175E-04  0.175E-04
   2.947  0.456E-04  0.152E-04  0.152E-04  0.152E-04
   2.957  0.473E-04  0.158E-04  0.158E-04  0.158E-04
   2.967  0.579E-04  0.193E-04  0.193E-04  0.193E-04
   2.977  0.788E-04  0.263E-04  0.263E-04  0.263E-04
   2.987  0.113E-03  0.376E-04  0.376E-04  0.376E-04
   2.997  0.165E-03  0.549E-04  0.549E-04  0.549E-04
   3.007  0.241E-03  0.802E-04  0.802E-04  0.802E-04
   3.017  0.350E-03  0.117E-03  0.117E-03  0.117E-03
   3.027  0.504E-03  0.168E-03  0.168E-03  0.168E-03
   3.037  0.718E-03  0.239E-03  0.239E-03  0.239E-03
   3.047  0.101E-02  0.338E-03  0.338E-03  0.338E-03
   3.057  0.142E-02  0.472E-03  0.472E-03  0.472E-03
   3.067  0.196E-02  0.652E-03  0.652E-03  0.652E-03
   3.077  0.268E-02  0.892E-03  0.892E-03  0.892E-03
   3.087  0.362E-02  0.121E-02  0.121E-02  0.121E-02
   3.097  0.484E-02  0.161E-02  0.161E-02  0.161E-02
   3.107  0.641E-02  0.214E-02  0.214E-02  0.214E-02
   3.117  0.840E-02  0.280E-02  0.280E-02  0.280E-02
   3.127  0.109E-01  0.363E-02  0.363E-02  0.363E-02
   3.137  0.140E-01  0.466E-02  0.466E-02  0.466E-02
   3.147  0.177E-01  0.591E-02  0.591E-02  0.591E-02
   3.157  0.223E-01  0.742E-02  0.742E-02  0.742E-02
   3.167  0.277E-01  0.922E-02  0.922E-02  0.922E-02
   3.177  0.340E-01  0.113E-01  0.113E-01  0.113E-01
   3.187  0.414E-01  0.138E-01  0.138E-01  0.138E-01
   3.197  0.499E-01  0.166E-01  0.166E-01  0.166E-01
   3.207  0.596E-01  0.199E-01  0.199E-01  0.199E-01
   3.217  0.704E-01  0.235E-01  0.235E-01  0.235E-01
   3.227  0.824E-01  0.275E-01  0.275E-01  0.275E-01
   3.237  0.956E-01  0.319E-01  0.319E-01  0.319E-01
   3.247  0.110E+00  0.366E-01  0.366E-01  0.366E-01
   3.257  0.125E+00  0.417E-01  0.417E-01  0.417E-01
   3.267  0.142E+00  0.472E-01  0.472E-01  0.472E-01
   3.277  0.159E+00  0.530E-01  0.530E-01  0.530E-01
   3.287  0.177E+00  0.591E-01  0.591E-01  0.591E-01
   3.297  0.196E+00  0.654E-01  0.654E-01  0.654E-01
   3.307  0.216E+00  0.721E-01  0.721E-01  0.721E-01
   3.317  0.237E+00  0.791E-01  0.791E-01  0.791E-01
   3.327  0.259E+00  0.865E-01  0.865E-01  0.865E-01
   3.337  0.283E+00  0.943E-01  0.943E-01  0.943E-01
   3.347  0.308E+00  0.103E+00  0.103E+00  0.103E+00
   3.357  0.335E+00  0.112E+00  0.112E+00  0.112E+00
   3.367  0.364E+00  0.121E+00  0.121E+00  0.121E+00
   3.377  0.397E+00  0.132E+00  0.132E+00  0.132E+00
   3.387  0.432E+00  0.144E+00  0.144E+00  0.144E+00
   3.397  0.471E+00  0.157E+00  0.157E+00  0.157E+00
   3.407  0.515E+00  0.172E+00  0.172E+00  0.172E+00
   3.417  0.562E+00  0.187E+00  0.187E+00  0.187E+00
   3.427  0.615E+00  0.205E+00  0.205E+00  0.205E+00
   3.437  0.672E+00  0.224E+00  0.224E+00  0.224E+00
   3.447  0.733E+00  0.244E+00  0.244E+00  0.244E+00
   3.457  0.798E+00  0.266E+00  0.266E+00  0.266E+00
   3.467  0.867E+00  0.289E+00  0.289E+00  0.289E+00
   3.477  0.938E+00  0.313E+00  0.313E+00  0.313E+00
   3.487  0.101E+01  0.337E+00  0.337E+00  0.337E+00
   3.497  0.108E+01  0.361E+00  0.361E+00  0.361E+00
   3.507  0.116E+01  0.385E+00  0.385E+00  0.385E+00
   3.517  0.123E+01  0.409E+00  0.409E+00  0.409E+00
   3.527  0.129E+01  0.431E+00  0.431E+00  0.431E+00
   3.537  0.136E+01  0.452E+00  0.452E+00  0.452E+00
   3.547  0.141E+01  0.470E+00  0.470E+00  0.470E+00
   3.557  0.146E+01  0.487E+00  0.487E+00  0.487E+00
   3.567  0.150E+01  0.500E+00  0.500E+00  0.500E+00
   3.577  0.153E+01  0.511E+00  0.511E+00  0.511E+00
   3.587  0.156E+01  0.519E+00  0.519E+00  0.519E+00
   3.597  0.157E+01  0.524E+00  0.524E+00  0.524E+00
   3.607  0.158E+01  0.526E+00  0.526E+00  0.526E+00
   3.617  0.157E+01  0.525E+00  0.525E+00  0.525E+00
   3.627  0.156E+01  0.521E+00  0.521E+00  0.521E+00
   3.637  0.155E+01  0.515E+00  0.515E+00  0.515E+00
   3.647  0.152E+01  0.507E+00  0.507E+00  0.507E+00
   3.657  0.149E+01  0.498E+00  0.498E+00  0.498E+00
   3.667  0.146E+01  0.486E+00  0.486E+00  0.486E+00
   3.677  0.142E+01  0.474E+00  0.474E+00  0.474E+00
   3.687  0.138E+01  0.462E+00  0.462E+00  0.462E+00
   3.697  0.135E+01  0.449E+00  0.449E+00  0.449E+00
   3.707  0.131E+01  0.436E+00  0.436E+00  0.436E+00
   3.717  0.127E+01  0.423E+00  0.423E+00  0.423E+00
   3.727  0.123E+01  0.411E+00  0.411E+00  0.411E+00
   3.737  0.120E+01  0.400E+00  0.400E+00  0.400E+00
   3.747  0.117E+01  0.389E+00  0.389E+00  0.389E+00
   3.757  0.114E+01  0.380E+00  0.380E+00  0.380E+00
   3.767  0.111E+01  0.370E+00  0.370E+00  0.370E+00
   3.777  0.109E+01  0.362E+00  0.362E+00  0.362E+00
   3.787  0.106E+01  0.354E+00  0.354E+00  0.354E+00
   3.797  0.104E+01  0.346E+00  0.346E+00  0.346E+00
   3.807  0.101E+01  0.338E+00  0.338E+00  0.338E+00
   3.817  0.990E+00  0.330E+00  0.330E+00  0.330E+00
   3.827  0.966E+00  0.322E+00  0.322E+00  0.322E+00
   3.837  0.942E+00  0.314E+00  0.314E+00  0.314E+00
   3.847  0.917E+00  0.306E+00  0.306E+00  0.306E+00
   3.857  0.892E+00  0.297E+00  0.297E+00  0.297E+00
   3.867  0.866E+00  0.289E+00  0.289E+00  0.289E+00
   3.877  0.841E+00  0.280E+00  0.280E+00  0.280E+00
   3.887  0.817E+00  0.272E+00  0.272E+00  0.272E+00
   3.897  0.795E+00  0.265E+00  0.265E+00  0.265E+00
   3.907  0.776E+00  0.259E+00  0.259E+00  0.259E+00
   3.917  0.760E+00  0.253E+00  0.253E+00  0.253E+00
   3.927  0.748E+00  0.249E+00  0.249E+00  0.249E+00
   3.937  0.741E+00  0.247E+00  0.247E+00  0.247E+00
   3.947  0.738E+00  0.246E+00  0.246E+00  0.246E+00
   3.957  0.740E+00  0.247E+00  0.247E+00  0.247E+00
   3.967  0.746E+00  0.249E+00  0.249E+00  0.249E+00
   3.977  0.757E+00  0.252E+00  0.252E+00  0.252E+00
   3.987  0.771E+00  0.257E+00  0.257E+00  0.257E+00
   3.997  0.788E+00  0.263E+00  0.263E+00  0.263E+00
   4.007  0.806E+00  0.269E+00  0.269E+00  0.269E+00
   4.017  0.825E+00  0.275E+00  0.275E+00  0.275E+00
   4.027  0.843E+00  0.281E+00  0.281E+00  0.281E+00
   4.037  0.859E+00  0.286E+00  0.286E+00  0.286E+00
   4.047  0.873E+00  0.291E+00  0.291E+00  0.291E+00
   4.057  0.883E+00  0.294E+00  0.294E+00  0.294E+00
   4.067  0.889E+00  0.296E+00  0.296E+00  0.296E+00
   4.077  0.890E+00  0.297E+00  0.297E+00  0.297E+00
   4.087  0.886E+00  0.295E+00  0.295E+00  0.295E+00
   4.097  0.878E+00  0.293E+00  0.293E+00  0.293E+00
   4.107  0.865E+00  0.288E+00  0.288E+00  0.288E+00
   4.117  0.849E+00  0.283E+00  0.283E+00  0.283E+00
   4.127  0.829E+00  0.276E+00  0.276E+00  0.276E+00
   4.137  0.807E+00  0.269E+00  0.269E+00  0.269E+00
   4.147  0.784E+00  0.261E+00  0.261E+00  0.261E+00
   4.157  0.761E+00  0.254E+00  0.254E+00  0.254E+00
   4.167  0.739E+00  0.246E+00  0.246E+00  0.246E+00
   4.177  0.718E+00  0.239E+00  0.239E+00  0.239E+00
   4.187  0.700E+00  0.233E+00  0.233E+00  0.233E+00
   4.197  0.686E+00  0.229E+00  0.229E+00  0.229E+00
   4.207  0.676E+00  0.225E+00  0.225E+00  0.225E+00
   4.217  0.670E+00  0.223E+00  0.223E+00  0.223E+00
   4.227  0.669E+00  0.223E+00  0.223E+00  0.223E+00
   4.237  0.672E+00  0.224E+00  0.224E+00  0.224E+00
   4.247  0.678E+00  0.226E+00  0.226E+00  0.226E+00
   4.257  0.688E+00  0.229E+00  0.229E+00  0.229E+00
   4.267  0.701E+00  0.234E+00  0.234E+00  0.234E+00
   4.277  0.715E+00  0.238E+00  0.238E+00  0.238E+00
   4.287  0.730E+00  0.243E+00  0.243E+00  0.243E+00
   4.297  0.744E+00  0.248E+00  0.248E+00  0.248E+00
   4.307  0.756E+00  0.252E+00  0.252E+00  0.252E+00
   4.317  0.766E+00  0.255E+00  0.255E+00  0.255E+00
   4.327  0.771E+00  0.257E+00  0.257E+00  0.257E+00
   4.337  0.772E+00  0.257E+00  0.257E+00  0.257E+00
   4.347  0.768E+00  0.256E+00  0.256E+00  0.256E+00
   4.357  0.757E+00  0.252E+00  0.252E+00  0.252E+00
   4.367  0.741E+00  0.247E+00  0.247E+00  0.247E+00
   4.377  0.719E+00  0.240E+00  0.240E+00  0.240E+00
   4.387  0.692E+00  0.231E+00  0.231E+00  0.231E+00
   4.397  0.660E+00  0.220E+00  0.220E+00  0.220E+00
   4.407  0.624E+00  0.208E+00  0.208E+00  0.208E+00
   4.417  0.586E+00  0.195E+00  0.195E+00  0.195E+00
   4.427  0.545E+00  0.182E+00  0.182E+00  0.182E+00
   4.437  0.504E+00  0.168E+00  0.168E+00  0.168E+00
   4.447  0.464E+00  0.155E+00  0.155E+00  0.155E+00
   4.457  0.425E+00  0.142E+00  0.142E+00  0.142E+00
   4.467  0.390E+00  0.130E+00  0.130E+00  0.130E+00
   4.477  0.358E+00  0.119E+00  0.119E+00  0.119E+00
   4.487  0.331E+00  0.110E+00  0.110E+00  0.110E+00
   4.497  0.310E+00  0.103E+00  0.103E+00  0.103E+00
   4.507  0.295E+00  0.985E-01  0.985E-01  0.985E-01
   4.517  0.287E+00  0.957E-01  0.957E-01  0.957E-01
   4.527  0.286E+00  0.952E-01  0.952E-01  0.952E-01
   4.537  0.291E+00  0.970E-01  0.970E-01  0.970E-01
   4.547  0.303E+00  0.101E+00  0.101E+00  0.101E+00
   4.557  0.322E+00  0.107E+00  0.107E+00  0.107E+00
   4.567  0.346E+00  0.115E+00  0.115E+00  0.115E+00
   4.577  0.375E+00  0.125E+00  0.125E+00  0.125E+00
   4.587  0.409E+00  0.136E+00  0.136E+00  0.136E+00
   4.597  0.445E+00  0.148E+00  0.148E+00  0.148E+00
   4.607  0.484E+00  0.161E+00  0.161E+00  0.161E+00
   4.617  0.523E+00  0.174E+00  0.174E+00  0.174E+00
   4.627  0.562E+00  0.187E+00  0.187E+00  0.187E+00
   4.637  0.599E+00  0.200E+00  0.200E+00  0.200E+00
   4.647  0.632E+00  0.211E+00  0.211E+00  0.211E+00
   4.657  0.662E+00  0.221E+00  0.221E+00  0.221E+00
   4.667  0.686E+00  0.229E+00  0.229E+00  0.229E+00
   4.677  0.705E+00  0.235E+00  0.235E+00  0.235E+00
   4.687  0.717E+00  0.239E+00  0.239E+00  0.239E+00
   4.697  0.721E+00  0.240E+00  0.240E+00  0.240E+00
   4.707  0.719E+00  0.240E+00  0.240E+00  0.240E+00
   4.717  0.710E+00  0.237E+00  0.237E+00  0.237E+00
   4.727  0.694E+00  0.231E+00  0.231E+00  0.231E+00
   4.737  0.673E+00  0.224E+00  0.224E+00  0.224E+00
   4.747  0.647E+00  0.216E+00  0.216E+00  0.216E+00
   4.757  0.617E+00  0.206E+00  0.206E+00  0.206E+00
   4.767  0.584E+00  0.195E+00  0.195E+00  0.195E+00
   4.777  0.550E+00  0.183E+00  0.183E+00  0.183E+00
   4.787  0.517E+00  0.172E+00  0.172E+00  0.172E+00
   4.797  0.484E+00  0.161E+00  0.161E+00  0.161E+00
   4.807  0.453E+00  0.151E+00  0.151E+00  0.151E+00
   4.817  0.426E+00  0.142E+00  0.142E+00  0.142E+00
   4.827  0.402E+00  0.134E+00  0.134E+00  0.134E+00
   4.837  0.383E+00  0.128E+00  0.128E+00  0.128E+00
   4.847  0.369E+00  0.123E+00  0.123E+00  0.123E+00
   4.857  0.361E+00  0.120E+00  0.120E+00  0.120E+00
   4.867  0.358E+00  0.119E+00  0.119E+00  0.119E+00
   4.877  0.360E+00  0.120E+00  0.120E+00  0.120E+00
   4.887  0.368E+00  0.123E+00  0.123E+00  0.123E+00
   4.897  0.380E+00  0.127E+00  0.127E+00  0.127E+00
   4.907  0.397E+00  0.132E+00  0.132E+00  0.132E+00
   4.917  0.419E+00  0.140E+00  0.140E+00  0.140E+00
   4.927  0.444E+00  0.148E+00  0.148E+00  0.148E+00
   4.937  0.472E+00  0.157E+00  0.157E+00  0.157E+00
   4.947  0.503E+00  0.168E+00  0.168E+00  0.168E+00
   4.957  0.536E+00  0.179E+00  0.179E+00  0.179E+00
   4.967  0.570E+00  0.190E+00  0.190E+00  0.190E+00
   4.977  0.604E+00  0.201E+00  0.201E+00  0.201E+00
   4.987  0.639E+00  0.213E+00  0.213E+00  0.213E+00
   4.997  0.673E+00  0.224E+00  0.224E+00  0.224E+00
   5.007  0.704E+00  0.235E+00  0.235E+00  0.235E+00
   5.017  0.734E+00  0.245E+00  0.245E+00  0.245E+00
   5.027  0.760E+00  0.253E+00  0.253E+00  0.253E+00
   5.037  0.782E+00  0.261E+00  0.261E+00  0.261E+00
   5.047  0.799E+00  0.266E+00  0.266E+00  0.266E+00
   5.057  0.811E+00  0.270E+00  0.270E+00  0.270E+00
   5.067  0.817E+00  0.272E+00  0.272E+00  0.272E+00
   5.077  0.816E+00  0.272E+00  0.272E+00  0.272E+00
   5.087  0.809E+00  0.270E+00  0.270E+00  0.270E+00
   5.097  0.794E+00  0.265E+00  0.265E+00  0.265E+00
   5.107  0.774E+00  0.258E+00  0.258E+00  0.258E+00
   5.117  0.747E+00  0.249E+00  0.249E+00  0.249E+00
   5.127  0.715E+00  0.238E+00  0.238E+00  0.238E+00
   5.137  0.677E+00  0.226E+00  0.226E+00  0.226E+00
   5.147  0.636E+00  0.212E+00  0.212E+00  0.212E+00
   5.157  0.591E+00  0.197E+00  0.197E+00  0.197E+00
   5.167  0.544E+00  0.181E+00  0.181E+00  0.181E+00
   5.177  0.496E+00  0.165E+00  0.165E+00  0.165E+00
   5.187  0.449E+00  0.150E+00  0.150E+00  0.150E+00
   5.197  0.401E+00  0.134E+00  0.134E+00  0.134E+00
   5.207  0.356E+00  0.119E+00  0.119E+00  0.119E+00
   5.217  0.313E+00  0.104E+00  0.104E+00  0.104E+00
   5.227  0.274E+00  0.913E-01  0.913E-01  0.913E-01
   5.237  0.238E+00  0.793E-01  0.793E-01  0.793E-01
   5.247  0.206E+00  0.688E-01  0.688E-01  0.688E-01
   5.257  0.179E+00  0.597E-01  0.597E-01  0.597E-01
   5.267  0.157E+00  0.523E-01  0.523E-01  0.523E-01
   5.277  0.139E+00  0.464E-01  0.464E-01  0.464E-01
   5.287  0.127E+00  0.423E-01  0.423E-01  0.423E-01
   5.297  0.119E+00  0.398E-01  0.398E-01  0.398E-01
   5.307  0.117E+00  0.390E-01  0.390E-01  0.390E-01
   5.317  0.120E+00  0.400E-01  0.400E-01  0.400E-01
   5.327  0.128E+00  0.426E-01  0.426E-01  0.426E-01
   5.337  0.141E+00  0.469E-01  0.469E-01  0.469E-01
   5.347  0.159E+00  0.528E-01  0.528E-01  0.528E-01
   5.357  0.181E+00  0.604E-01  0.604E-01  0.604E-01
   5.367  0.209E+00  0.695E-01  0.695E-01  0.695E-01
   5.377  0.240E+00  0.801E-01  0.801E-01  0.801E-01
   5.387  0.276E+00  0.920E-01  0.920E-01  0.920E-01
   5.397  0.315E+00  0.105E+00  0.105E+00  0.105E+00
   5.407  0.358E+00  0.119E+00  0.119E+00  0.119E+00
   5.417  0.402E+00  0.134E+00  0.134E+00  0.134E+00
   5.427  0.448E+00  0.149E+00  0.149E+00  0.149E+00
   5.437  0.495E+00  0.165E+00  0.165E+00  0.165E+00
   5.447  0.541E+00  0.180E+00  0.180E+00  0.180E+00
   5.457  0.586E+00  0.195E+00  0.195E+00  0.195E+00
   5.467  0.628E+00  0.209E+00  0.209E+00  0.209E+00
   5.477  0.667E+00  0.222E+00  0.222E+00  0.222E+00
   5.487  0.702E+00  0.234E+00  0.234E+00  0.234E+00
   5.497  0.732E+00  0.244E+00  0.244E+00  0.244E+00
   5.507  0.756E+00  0.252E+00  0.252E+00  0.252E+00
   5.517  0.774E+00  0.258E+00  0.258E+00  0.258E+00
   5.527  0.786E+00  0.262E+00  0.262E+00  0.262E+00
   5.537  0.792E+00  0.264E+00  0.264E+00  0.264E+00
   5.547  0.792E+00  0.264E+00  0.264E+00  0.264E+00
   5.557  0.786E+00  0.262E+00  0.262E+00  0.262E+00
   5.567  0.774E+00  0.258E+00  0.258E+00  0.258E+00
   5.577  0.758E+00  0.253E+00  0.253E+00  0.253E+00
   5.587  0.738E+00  0.246E+00  0.246E+00  0.246E+00
   5.597  0.715E+00  0.238E+00  0.238E+00  0.238E+00
   5.607  0.689E+00  0.230E+00  0.230E+00  0.230E+00
   5.617  0.660E+00  0.220E+00  0.220E+00  0.220E+00
   5.627  0.631E+00  0.210E+00  0.210E+00  0.210E+00
   5.637  0.601E+00  0.200E+00  0.200E+00  0.200E+00
   5.647  0.571E+00  0.190E+00  0.190E+00  0.190E+00
   5.657  0.540E+00  0.180E+00  0.180E+00  0.180E+00
   5.667  0.511E+00  0.170E+00  0.170E+00  0.170E+00
   5.677  0.482E+00  0.161E+00  0.161E+00  0.161E+00
   5.687  0.454E+00  0.151E+00  0.151E+00  0.151E+00
   5.697  0.427E+00  0.142E+00  0.142E+00  0.142E+00
   5.707  0.403E+00  0.134E+00  0.134E+00  0.134E+00
   5.717  0.380E+00  0.127E+00  0.127E+00  0.127E+00
   5.727  0.360E+00  0.120E+00  0.120E+00  0.120E+00
   5.737  0.342E+00  0.114E+00  0.114E+00  0.114E+00
   5.747  0.328E+00  0.109E+00  0.109E+00  0.109E+00
   5.757  0.318E+00  0.106E+00  0.106E+00  0.106E+00
   5.767  0.311E+00  0.104E+00  0.104E+00  0.104E+00
   5.777  0.309E+00  0.103E+00  0.103E+00  0.103E+00
   5.787  0.312E+00  0.104E+00  0.104E+00  0.104E+00
   5.797  0.319E+00  0.106E+00  0.106E+00  0.106E+00
   5.807  0.332E+00  0.111E+00  0.111E+00  0.111E+00
   5.817  0.349E+00  0.116E+00  0.116E+00  0.116E+00
   5.827  0.371E+00  0.124E+00  0.124E+00  0.124E+00
   5.837  0.398E+00  0.133E+00  0.133E+00  0.133E+00
   5.847  0.427E+00  0.142E+00  0.142E+00  0.142E+00
   5.857  0.460E+00  0.153E+00  0.153E+00  0.153E+00
   5.867  0.495E+00  0.165E+00  0.165E+00  0.165E+00
   5.877  0.530E+00  0.177E+00  0.177E+00  0.177E+00
   5.887  0.566E+00  0.189E+00  0.189E+00  0.189E+00
   5.897  0.599E+00  0.200E+00  0.200E+00  0.200E+00
   5.907  0.630E+00  0.210E+00  0.210E+00  0.210E+00
   5.917  0.657E+00  0.219E+00  0.219E+00  0.219E+00
   5.927  0.679E+00  0.226E+00  0.226E+00  0.226E+00
   5.937  0.696E+00  0.232E+00  0.232E+00  0.232E+00
   5.947  0.706E+00  0.235E+00  0.235E+00  0.235E+00
   5.957  0.710E+00  0.237E+00  0.237E+00  0.237E+00
   5.967  0.706E+00  0.235E+00  0.235E+00  0.235E+00
   5.977  0.696E+00  0.232E+00  0.232E+00  0.232E+00
   5.987  0.679E+00  0.226E+00  0.226E+00  0.226E+00
   5.997  0.657E+00  0.219E+00  0.219E+00  0.219E+00
   6.007  0.630E+00  0.210E+00  0.210E+00  0.210E+00
   6.017  0.599E+00  0.200E+00  0.200E+00  0.200E+00
   6.027  0.566E+00  0.189E+00  0.189E+00  0.189E+00
   6.037  0.531E+00  0.177E+00  0.177E+00  0.177E+00
   6.047  0.497E+00  0.166E+00  0.166E+00  0.166E+00
   6.057  0.464E+00  0.155E+00  0.155E+00  0.155E+00
   6.067  0.433E+00  0.144E+00  0.144E+00  0.144E+00
   6.077  0.407E+00  0.136E+00  0.136E+00  0.136E+00
   6.087  0.385E+00  0.128E+00  0.128E+00  0.128E+00
   6.097  0.370E+00  0.123E+00  0.123E+00  0.123E+00
   6.107  0.360E+00  0.120E+00  0.120E+00  0.120E+00
   6.117  0.358E+00  0.119E+00  0.119E+00  0.119E+00
   6.127  0.363E+00  0.121E+00  0.121E+00  0.121E+00
   6.137  0.375E+00  0.125E+00  0.125E+00  0.125E+00
   6.147  0.394E+00  0.131E+00  0.131E+00  0.131E+00
   6.157  0.421E+00  0.140E+00  0.140E+00  0.140E+00
   6.167  0.454E+00  0.151E+00  0.151E+00  0.151E+00
   6.177  0.492E+00  0.164E+00  0.164E+00  0.164E+00
   6.187  0.536E+00  0.179E+00  0.179E+00  0.179E+00
   6.197  0.585E+00  0.195E+00  0.195E+00  0.195E+00
   6.207  0.636E+00  0.212E+00  0.212E+00  0.212E+00
   6.217  0.690E+00  0.230E+00  0.230E+00  0.230E+00
   6.227  0.745E+00  0.248E+00  0.248E+00  0.248E+00
   6.237  0.800E+00  0.267E+00  0.267E+00  0.267E+00
   6.247  0.854E+00  0.285E+00  0.285E+00  0.285E+00
   6.257  0.907E+00  0.302E+00  0.302E+00  0.302E+00
   6.267  0.957E+00  0.319E+00  0.319E+00  0.319E+00
   6.277  0.100E+01  0.335E+00  0.335E+00  0.335E+00
   6.287  0.105E+01  0.349E+00  0.349E+00  0.349E+00
   6.297  0.109E+01  0.362E+00  0.362E+00  0.362E+00
   6.307  0.112E+01  0.374E+00  0.374E+00  0.374E+00
   6.317  0.115E+01  0.384E+00  0.384E+00  0.384E+00
   6.327  0.118E+01  0.393E+00  0.393E+00  0.393E+00
   6.337  0.120E+01  0.401E+00  0.401E+00  0.401E+00
   6.347  0.122E+01  0.408E+00  0.408E+00  0.408E+00
   6.357  0.124E+01  0.414E+00  0.414E+00  0.414E+00
   6.367  0.126E+01  0.420E+00  0.420E+00  0.420E+00
   6.377  0.127E+01  0.424E+00  0.424E+00  0.424E+00
   6.387  0.128E+01  0.428E+00  0.428E+00  0.428E+00
   6.397  0.130E+01  0.432E+00  0.432E+00  0.432E+00
   6.407  0.130E+01  0.435E+00  0.435E+00  0.435E+00
   6.417  0.131E+01  0.437E+00  0.437E+00  0.437E+00
   6.427  0.131E+01  0.438E+00  0.438E+00  0.438E+00
   6.437  0.131E+01  0.438E+00  0.438E+00  0.438E+00
   6.447  0.131E+01  0.436E+00  0.436E+00  0.436E+00
   6.457  0.130E+01  0.434E+00  0.434E+00  0.434E+00
   6.467  0.129E+01  0.429E+00  0.429E+00  0.429E+00
   6.477  0.127E+01  0.422E+00  0.422E+00  0.422E+00
   6.487  0.124E+01  0.413E+00  0.413E+00  0.413E+00
   6.497  0.120E+01  0.402E+00  0.402E+00  0.402E+00
   6.507  0.116E+01  0.388E+00  0.388E+00  0.388E+00
   6.517  0.112E+01  0.372E+00  0.372E+00  0.372E+00
   6.527  0.106E+01  0.354E+00  0.354E+00  0.354E+00
   6.537  0.100E+01  0.335E+00  0.335E+00  0.335E+00
   6.547  0.942E+00  0.314E+00  0.314E+00  0.314E+00
   6.557  0.876E+00  0.292E+00  0.292E+00  0.292E+00
   6.567  0.809E+00  0.270E+00  0.270E+00  0.270E+00
   6.577  0.742E+00  0.247E+00  0.247E+00  0.247E+00
   6.587  0.676E+00  0.225E+00  0.225E+00  0.225E+00
   6.597  0.613E+00  0.204E+00  0.204E+00  0.204E+00
   6.607  0.553E+00  0.184E+00  0.184E+00  0.184E+00
   6.617  0.499E+00  0.166E+00  0.166E+00  0.166E+00
   6.627  0.451E+00  0.150E+00  0.150E+00  0.150E+00
   6.637  0.410E+00  0.137E+00  0.137E+00  0.137E+00
   6.647  0.377E+00  0.126E+00  0.126E+00  0.126E+00
   6.657  0.351E+00  0.117E+00  0.117E+00  0.117E+00
   6.667  0.333E+00  0.111E+00  0.111E+00  0.111E+00
   6.677  0.323E+00  0.108E+00  0.108E+00  0.108E+00
   6.687  0.321E+00  0.107E+00  0.107E+00  0.107E+00
   6.697  0.326E+00  0.109E+00  0.109E+00  0.109E+00
   6.707  0.337E+00  0.112E+00  0.112E+00  0.112E+00
   6.717  0.355E+00  0.118E+00  0.118E+00  0.118E+00
   6.727  0.377E+00  0.126E+00  0.126E+00  0.126E+00
   6.737  0.403E+00  0.134E+00  0.134E+00  0.134E+00
   6.747  0.433E+00  0.144E+00  0.144E+00  0.144E+00
   6.757  0.465E+00  0.155E+00  0.155E+00  0.155E+00
   6.767  0.498E+00  0.166E+00  0.166E+00  0.166E+00
   6.777  0.532E+00  0.177E+00  0.177E+00  0.177E+00
   6.787  0.564E+00  0.188E+00  0.188E+00  0.188E+00
   6.797  0.595E+00  0.198E+00  0.198E+00  0.198E+00
   6.807  0.624E+00  0.208E+00  0.208E+00  0.208E+00
   6.817  0.650E+00  0.217E+00  0.217E+00  0.217E+00
   6.827  0.673E+00  0.224E+00  0.224E+00  0.224E+00
   6.837  0.692E+00  0.231E+00  0.231E+00  0.231E+00
   6.847  0.706E+00  0.235E+00  0.235E+00  0.235E+00
   6.857  0.716E+00  0.239E+00  0.239E+00  0.239E+00
   6.867  0.723E+00  0.241E+00  0.241E+00  0.241E+00
   6.877  0.724E+00  0.241E+00  0.241E+00  0.241E+00
   6.887  0.723E+00  0.241E+00  0.241E+00  0.241E+00
   6.897  0.717E+00  0.239E+00  0.239E+00  0.239E+00
   6.907  0.709E+00  0.236E+00  0.236E+00  0.236E+00
   6.917  0.697E+00  0.232E+00  0.232E+00  0.232E+00
   6.927  0.684E+00  0.228E+00  0.228E+00  0.228E+00
   6.937  0.668E+00  0.223E+00  0.223E+00  0.223E+00
   6.947  0.652E+00  0.217E+00  0.217E+00  0.217E+00
   6.957  0.634E+00  0.211E+00  0.211E+00  0.211E+00
   6.967  0.616E+00  0.205E+00  0.205E+00  0.205E+00
   6.977  0.598E+00  0.199E+00  0.199E+00  0.199E+00
   6.987  0.580E+00  0.193E+00  0.193E+00  0.193E+00
   6.997  0.563E+00  0.188E+00  0.188E+00  0.188E+00
   7.007  0.546E+00  0.182E+00  0.182E+00  0.182E+00
   7.017  0.530E+00  0.177E+00  0.177E+00  0.177E+00
   7.027  0.515E+00  0.172E+00  0.172E+00  0.172E+00
   7.037  0.501E+00  0.167E+00  0.167E+00  0.167E+00
   7.047  0.488E+00  0.163E+00  0.163E+00  0.163E+00
   7.057  0.476E+00  0.159E+00  0.159E+00  0.159E+00
   7.067  0.465E+00  0.155E+00  0.155E+00  0.155E+00
   7.077  0.455E+00  0.152E+00  0.152E+00  0.152E+00
   7.087  0.446E+00  0.149E+00  0.149E+00  0.149E+00
   7.097  0.438E+00  0.146E+00  0.146E+00  0.146E+00
   7.107  0.431E+00  0.144E+00  0.144E+00  0.144E+00
   7.117  0.425E+00  0.142E+00  0.142E+00  0.142E+00
   7.127  0.419E+00  0.140E+00  0.140E+00  0.140E+00
   7.137  0.414E+00  0.138E+00  0.138E+00  0.138E+00
   7.147  0.409E+00  0.136E+00  0.136E+00  0.136E+00
   7.157  0.405E+00  0.135E+00  0.135E+00  0.135E+00
   7.167  0.401E+00  0.134E+00  0.134E+00  0.134E+00
   7.177  0.397E+00  0.132E+00  0.132E+00  0.132E+00
   7.187  0.392E+00  0.131E+00  0.131E+00  0.131E+00
   7.197  0.387E+00  0.129E+00  0.129E+00  0.129E+00
   7.207  0.381E+00  0.127E+00  0.127E+00  0.127E+00
   7.217  0.375E+00  0.125E+00  0.125E+00  0.125E+00
   7.227  0.368E+00  0.123E+00  0.123E+00  0.123E+00
   7.237  0.361E+00  0.120E+00  0.120E+00  0.120E+00
   7.247  0.352E+00  0.117E+00  0.117E+00  0.117E+00
   7.257  0.344E+00  0.115E+00  0.115E+00  0.115E+00
   7.267  0.334E+00  0.111E+00  0.111E+00  0.111E+00
   7.277  0.325E+00  0.108E+00  0.108E+00  0.108E+00
   7.287  0.315E+00  0.105E+00  0.105E+00  0.105E+00
   7.297  0.306E+00  0.102E+00  0.102E+00  0.102E+00
   7.307  0.298E+00  0.992E-01  0.992E-01  0.992E-01
   7.317  0.290E+00  0.967E-01  0.967E-01  0.967E-01
   7.327  0.284E+00  0.946E-01  0.946E-01  0.946E-01
   7.337  0.279E+00  0.931E-01  0.931E-01  0.931E-01
   7.347  0.276E+00  0.921E-01  0.921E-01  0.921E-01
   7.357  0.275E+00  0.918E-01  0.918E-01  0.918E-01
   7.367  0.276E+00  0.921E-01  0.921E-01  0.921E-01
   7.377  0.279E+00  0.931E-01  0.931E-01  0.931E-01
   7.387  0.284E+00  0.948E-01  0.948E-01  0.948E-01
   7.397  0.291E+00  0.970E-01  0.970E-01  0.970E-01
   7.407  0.299E+00  0.996E-01  0.996E-01  0.996E-01
   7.417  0.308E+00  0.103E+00  0.103E+00  0.103E+00
   7.427  0.318E+00  0.106E+00  0.106E+00  0.106E+00
   7.437  0.328E+00  0.109E+00  0.109E+00  0.109E+00
   7.447  0.338E+00  0.113E+00  0.113E+00  0.113E+00
   7.457  0.347E+00  0.116E+00  0.116E+00  0.116E+00
   7.467  0.355E+00  0.118E+00  0.118E+00  0.118E+00
   7.477  0.361E+00  0.120E+00  0.120E+00  0.120E+00
   7.487  0.365E+00  0.122E+00  0.122E+00  0.122E+00
   7.497  0.367E+00  0.122E+00  0.122E+00  0.122E+00
   7.507  0.367E+00  0.122E+00  0.122E+00  0.122E+00
   7.517  0.363E+00  0.121E+00  0.121E+00  0.121E+00
   7.527  0.358E+00  0.119E+00  0.119E+00  0.119E+00
   7.537  0.349E+00  0.116E+00  0.116E+00  0.116E+00
   7.547  0.338E+00  0.113E+00  0.113E+00  0.113E+00
   7.557  0.325E+00  0.108E+00  0.108E+00  0.108E+00
   7.567  0.309E+00  0.103E+00  0.103E+00  0.103E+00
   7.577  0.293E+00  0.975E-01  0.975E-01  0.975E-01
   7.587  0.275E+00  0.916E-01  0.916E-01  0.916E-01
   7.597  0.257E+00  0.855E-01  0.855E-01  0.855E-01
   7.607  0.238E+00  0.794E-01  0.794E-01  0.794E-01
   7.617  0.221E+00  0.735E-01  0.735E-01  0.735E-01
   7.627  0.204E+00  0.680E-01  0.680E-01  0.680E-01
   7.637  0.189E+00  0.630E-01  0.630E-01  0.630E-01
   7.647  0.176E+00  0.587E-01  0.587E-01  0.587E-01
   7.657  0.165E+00  0.552E-01  0.552E-01  0.552E-01
   7.667  0.158E+00  0.526E-01  0.526E-01  0.526E-01
   7.677  0.153E+00  0.511E-01  0.511E-01  0.511E-01
   7.687  0.152E+00  0.506E-01  0.506E-01  0.506E-01
   7.697  0.154E+00  0.513E-01  0.513E-01  0.513E-01
   7.707  0.160E+00  0.532E-01  0.532E-01  0.532E-01
   7.717  0.168E+00  0.561E-01  0.561E-01  0.561E-01
   7.727  0.180E+00  0.602E-01  0.602E-01  0.602E-01
   7.737  0.195E+00  0.651E-01  0.651E-01  0.651E-01
   7.747  0.213E+00  0.709E-01  0.709E-01  0.709E-01
   7.757  0.232E+00  0.774E-01  0.774E-01  0.774E-01
   7.767  0.253E+00  0.843E-01  0.843E-01  0.843E-01
   7.777  0.275E+00  0.916E-01  0.916E-01  0.916E-01
   7.787  0.296E+00  0.988E-01  0.988E-01  0.988E-01
   7.797  0.318E+00  0.106E+00  0.106E+00  0.106E+00
   7.807  0.338E+00  0.113E+00  0.113E+00  0.113E+00
   7.817  0.356E+00  0.119E+00  0.119E+00  0.119E+00
   7.827  0.371E+00  0.124E+00  0.124E+00  0.124E+00
   7.837  0.384E+00  0.128E+00  0.128E+00  0.128E+00
   7.847  0.392E+00  0.131E+00  0.131E+00  0.131E+00
   7.857  0.397E+00  0.132E+00  0.132E+00  0.132E+00
   7.867  0.398E+00  0.133E+00  0.133E+00  0.133E+00
   7.877  0.395E+00  0.132E+00  0.132E+00  0.132E+00
   7.887  0.387E+00  0.129E+00  0.129E+00  0.129E+00
   7.897  0.376E+00  0.125E+00  0.125E+00  0.125E+00
   7.907  0.362E+00  0.121E+00  0.121E+00  0.121E+00
   7.917  0.344E+00  0.115E+00  0.115E+00  0.115E+00
   7.927  0.325E+00  0.108E+00  0.108E+00  0.108E+00
   7.937  0.303E+00  0.101E+00  0.101E+00  0.101E+00
   7.947  0.281E+00  0.938E-01  0.938E-01  0.938E-01
   7.957  0.259E+00  0.863E-01  0.863E-01  0.863E-01
   7.967  0.237E+00  0.790E-01  0.790E-01  0.790E-01
   7.977  0.216E+00  0.720E-01  0.720E-01  0.720E-01
   7.987  0.197E+00  0.656E-01  0.656E-01  0.656E-01
   7.997  0.180E+00  0.599E-01  0.599E-01  0.599E-01
   8.007  0.165E+00  0.551E-01  0.551E-01  0.551E-01
   8.017  0.154E+00  0.512E-01  0.512E-01  0.512E-01
   8.027  0.145E+00  0.484E-01  0.484E-01  0.484E-01
   8.037  0.140E+00  0.467E-01  0.467E-01  0.467E-01
   8.047  0.138E+00  0.461E-01  0.461E-01  0.461E-01
   8.057  0.140E+00  0.466E-01  0.466E-01  0.466E-01
   8.067  0.144E+00  0.482E-01  0.482E-01  0.482E-01
   8.077  0.152E+00  0.507E-01  0.507E-01  0.507E-01
   8.087  0.162E+00  0.540E-01  0.540E-01  0.540E-01
   8.097  0.174E+00  0.581E-01  0.581E-01  0.581E-01
   8.107  0.188E+00  0.628E-01  0.628E-01  0.628E-01
   8.117  0.204E+00  0.679E-01  0.679E-01  0.679E-01
   8.127  0.220E+00  0.733E-01  0.733E-01  0.733E-01
   8.137  0.236E+00  0.787E-01  0.787E-01  0.787E-01
   8.147  0.252E+00  0.840E-01  0.840E-01  0.840E-01
   8.157  0.267E+00  0.890E-01  0.890E-01  0.890E-01
   8.167  0.281E+00  0.935E-01  0.935E-01  0.935E-01
   8.177  0.292E+00  0.975E-01  0.975E-01  0.975E-01
   8.187  0.302E+00  0.101E+00  0.101E+00  0.101E+00
   8.197  0.310E+00  0.103E+00  0.103E+00  0.103E+00
   8.207  0.315E+00  0.105E+00  0.105E+00  0.105E+00
   8.217  0.317E+00  0.106E+00  0.106E+00  0.106E+00
   8.227  0.318E+00  0.106E+00  0.106E+00  0.106E+00
   8.237  0.316E+00  0.105E+00  0.105E+00  0.105E+00
   8.247  0.311E+00  0.104E+00  0.104E+00  0.104E+00
   8.257  0.306E+00  0.102E+00  0.102E+00  0.102E+00
   8.267  0.299E+00  0.996E-01  0.996E-01  0.996E-01
   8.277  0.291E+00  0.971E-01  0.971E-01  0.971E-01
   8.287  0.283E+00  0.944E-01  0.944E-01  0.944E-01
   8.297  0.275E+00  0.918E-01  0.918E-01  0.918E-01
   8.307  0.268E+00  0.893E-01  0.893E-01  0.893E-01
   8.317  0.262E+00  0.872E-01  0.872E-01  0.872E-01
   8.327  0.257E+00  0.856E-01  0.856E-01  0.856E-01
   8.337  0.253E+00  0.844E-01  0.844E-01  0.844E-01
   8.347  0.252E+00  0.838E-01  0.838E-01  0.838E-01
   8.357  0.252E+00  0.839E-01  0.839E-01  0.839E-01
   8.367  0.254E+00  0.846E-01  0.846E-01  0.846E-01
   8.377  0.258E+00  0.860E-01  0.860E-01  0.860E-01
   8.387  0.264E+00  0.880E-01  0.880E-01  0.880E-01
   8.397  0.272E+00  0.905E-01  0.905E-01  0.905E-01
   8.407  0.281E+00  0.935E-01  0.935E-01  0.935E-01
   8.417  0.291E+00  0.969E-01  0.969E-01  0.969E-01
   8.427  0.302E+00  0.101E+00  0.101E+00  0.101E+00
   8.437  0.313E+00  0.104E+00  0.104E+00  0.104E+00
   8.447  0.325E+00  0.108E+00  0.108E+00  0.108E+00
   8.457  0.336E+00  0.112E+00  0.112E+00  0.112E+00
   8.467  0.347E+00  0.116E+00  0.116E+00  0.116E+00
   8.477  0.356E+00  0.119E+00  0.119E+00  0.119E+00
   8.487  0.364E+00  0.121E+00  0.121E+00  0.121E+00
   8.497  0.371E+00  0.124E+00  0.124E+00  0.124E+00
   8.507  0.375E+00  0.125E+00  0.125E+00  0.125E+00
   8.517  0.378E+00  0.126E+00  0.126E+00  0.126E+00
   8.527  0.378E+00  0.126E+00  0.126E+00  0.126E+00
   8.537  0.377E+00  0.126E+00  0.126E+00  0.126E+00
   8.547  0.374E+00  0.125E+00  0.125E+00  0.125E+00
   8.557  0.370E+00  0.123E+00  0.123E+00  0.123E+00
   8.567  0.365E+00  0.122E+00  0.122E+00  0.122E+00
   8.577  0.360E+00  0.120E+00  0.120E+00  0.120E+00
   8.587  0.356E+00  0.119E+00  0.119E+00  0.119E+00
   8.597  0.352E+00  0.117E+00  0.117E+00  0.117E+00
   8.607  0.351E+00  0.117E+00  0.117E+00  0.117E+00
   8.617  0.353E+00  0.118E+00  0.118E+00  0.118E+00
   8.627  0.359E+00  0.120E+00  0.120E+00  0.120E+00
   8.637  0.369E+00  0.123E+00  0.123E+00  0.123E+00
   8.647  0.385E+00  0.128E+00  0.128E+00  0.128E+00
   8.657  0.406E+00  0.135E+00  0.135E+00  0.135E+00
   8.667  0.433E+00  0.144E+00  0.144E+00  0.144E+00
   8.677  0.466E+00  0.155E+00  0.155E+00  0.155E+00
   8.687  0.506E+00  0.169E+00  0.169E+00  0.169E+00
   8.697  0.552E+00  0.184E+00  0.184E+00  0.184E+00
   8.707  0.603E+00  0.201E+00  0.201E+00  0.201E+00
   8.717  0.660E+00  0.220E+00  0.220E+00  0.220E+00
   8.727  0.721E+00  0.240E+00  0.240E+00  0.240E+00
   8.737  0.786E+00  0.262E+00  0.262E+00  0.262E+00
   8.747  0.852E+00  0.284E+00  0.284E+00  0.284E+00
   8.757  0.920E+00  0.307E+00  0.307E+00  0.307E+00
   8.767  0.987E+00  0.329E+00  0.329E+00  0.329E+00
   8.777  0.105E+01  0.351E+00  0.351E+00  0.351E+00
   8.787  0.111E+01  0.371E+00  0.371E+00  0.371E+00
   8.797  0.117E+01  0.390E+00  0.390E+00  0.390E+00
   8.807  0.122E+01  0.407E+00  0.407E+00  0.407E+00
   8.817  0.127E+01  0.422E+00  0.422E+00  0.422E+00
   8.827  0.130E+01  0.434E+00  0.434E+00  0.434E+00
   8.837  0.133E+01  0.443E+00  0.443E+00  0.443E+00
   8.847  0.135E+01  0.449E+00  0.449E+00  0.449E+00
   8.857  0.136E+01  0.452E+00  0.452E+00  0.452E+00
   8.867  0.136E+01  0.453E+00  0.453E+00  0.453E+00
   8.877  0.135E+01  0.450E+00  0.450E+00  0.450E+00
   8.887  0.134E+01  0.445E+00  0.445E+00  0.445E+00
   8.897  0.131E+01  0.438E+00  0.438E+00  0.438E+00
   8.907  0.129E+01  0.430E+00  0.430E+00  0.430E+00
   8.917  0.126E+01  0.420E+00  0.420E+00  0.420E+00
   8.927  0.123E+01  0.409E+00  0.409E+00  0.409E+00
   8.937  0.120E+01  0.399E+00  0.399E+00  0.399E+00
   8.947  0.116E+01  0.388E+00  0.388E+00  0.388E+00
   8.957  0.113E+01  0.378E+00  0.378E+00  0.378E+00
   8.967  0.111E+01  0.369E+00  0.369E+00  0.369E+00
   8.977  0.108E+01  0.360E+00  0.360E+00  0.360E+00
   8.987  0.106E+01  0.352E+00  0.352E+00  0.352E+00
   8.997  0.104E+01  0.345E+00  0.345E+00  0.345E+00
   9.007  0.102E+01  0.339E+00  0.339E+00  0.339E+00
   9.017  0.998E+00  0.333E+00  0.333E+00  0.333E+00
   9.027  0.980E+00  0.327E+00  0.327E+00  0.327E+00
   9.037  0.961E+00  0.320E+00  0.320E+00  0.320E+00
   9.047  0.941E+00  0.314E+00  0.314E+00  0.314E+00
   9.057  0.918E+00  0.306E+00  0.306E+00  0.306E+00
   9.067  0.893E+00  0.298E+00  0.298E+00  0.298E+00
   9.077  0.863E+00  0.288E+00  0.288E+00  0.288E+00
   9.087  0.830E+00  0.277E+00  0.277E+00  0.277E+00
   9.097  0.793E+00  0.264E+00  0.264E+00  0.264E+00
   9.107  0.752E+00  0.251E+00  0.251E+00  0.251E+00
   9.117  0.707E+00  0.236E+00  0.236E+00  0.236E+00
   9.127  0.660E+00  0.220E+00  0.220E+00  0.220E+00
   9.137  0.611E+00  0.204E+00  0.204E+00  0.204E+00
   9.147  0.560E+00  0.187E+00  0.187E+00  0.187E+00
   9.157  0.508E+00  0.169E+00  0.169E+00  0.169E+00
   9.167  0.457E+00  0.152E+00  0.152E+00  0.152E+00
   9.177  0.407E+00  0.136E+00  0.136E+00  0.136E+00
   9.187  0.359E+00  0.120E+00  0.120E+00  0.120E+00
   9.197  0.313E+00  0.104E+00  0.104E+00  0.104E+00
   9.207  0.271E+00  0.903E-01  0.903E-01  0.903E-01
   9.217  0.232E+00  0.773E-01  0.773E-01  0.773E-01
   9.227  0.197E+00  0.655E-01  0.655E-01  0.655E-01
   9.237  0.165E+00  0.551E-01  0.551E-01  0.551E-01
   9.247  0.138E+00  0.459E-01  0.459E-01  0.459E-01
   9.257  0.114E+00  0.381E-01  0.381E-01  0.381E-01
   9.267  0.943E-01  0.314E-01  0.314E-01  0.314E-01
   9.277  0.780E-01  0.260E-01  0.260E-01  0.260E-01
   9.287  0.651E-01  0.217E-01  0.217E-01  0.217E-01
   9.297  0.555E-01  0.185E-01  0.185E-01  0.185E-01
   9.307  0.490E-01  0.163E-01  0.163E-01  0.163E-01
   9.317  0.454E-01  0.151E-01  0.151E-01  0.151E-01
   9.327  0.447E-01  0.149E-01  0.149E-01  0.149E-01
   9.337  0.469E-01  0.156E-01  0.156E-01  0.156E-01
   9.347  0.520E-01  0.173E-01  0.173E-01  0.173E-01
   9.357  0.600E-01  0.200E-01  0.200E-01  0.200E-01
   9.367  0.711E-01  0.237E-01  0.237E-01  0.237E-01
   9.377  0.853E-01  0.284E-01  0.284E-01  0.284E-01
   9.387  0.103E+00  0.343E-01  0.343E-01  0.343E-01
   9.397  0.124E+00  0.413E-01  0.413E-01  0.413E-01
   9.407  0.148E+00  0.495E-01  0.495E-01  0.495E-01
   9.417  0.176E+00  0.588E-01  0.588E-01  0.588E-01
   9.427  0.208E+00  0.693E-01  0.693E-01  0.693E-01
   9.437  0.243E+00  0.809E-01  0.809E-01  0.809E-01
   9.447  0.280E+00  0.935E-01  0.935E-01  0.935E-01
   9.457  0.321E+00  0.107E+00  0.107E+00  0.107E+00
   9.467  0.363E+00  0.121E+00  0.121E+00  0.121E+00
   9.477  0.406E+00  0.135E+00  0.135E+00  0.135E+00
   9.487  0.450E+00  0.150E+00  0.150E+00  0.150E+00
   9.497  0.494E+00  0.165E+00  0.165E+00  0.165E+00
   9.507  0.536E+00  0.179E+00  0.179E+00  0.179E+00
   9.517  0.575E+00  0.192E+00  0.192E+00  0.192E+00
   9.527  0.611E+00  0.204E+00  0.204E+00  0.204E+00
   9.537  0.643E+00  0.214E+00  0.214E+00  0.214E+00
   9.547  0.669E+00  0.223E+00  0.223E+00  0.223E+00
   9.557  0.690E+00  0.230E+00  0.230E+00  0.230E+00
   9.567  0.703E+00  0.234E+00  0.234E+00  0.234E+00
   9.577  0.710E+00  0.237E+00  0.237E+00  0.237E+00
   9.587  0.710E+00  0.237E+00  0.237E+00  0.237E+00
   9.597  0.703E+00  0.234E+00  0.234E+00  0.234E+00
   9.607  0.689E+00  0.230E+00  0.230E+00  0.230E+00
   9.617  0.670E+00  0.223E+00  0.223E+00  0.223E+00
   9.627  0.645E+00  0.215E+00  0.215E+00  0.215E+00
   9.637  0.615E+00  0.205E+00  0.205E+00  0.205E+00
   9.647  0.582E+00  0.194E+00  0.194E+00  0.194E+00
   9.657  0.546E+00  0.182E+00  0.182E+00  0.182E+00
   9.667  0.508E+00  0.169E+00  0.169E+00  0.169E+00
   9.677  0.469E+00  0.156E+00  0.156E+00  0.156E+00
   9.687  0.429E+00  0.143E+00  0.143E+00  0.143E+00
   9.697  0.391E+00  0.130E+00  0.130E+00  0.130E+00
   9.707  0.353E+00  0.118E+00  0.118E+00  0.118E+00
   9.717  0.317E+00  0.106E+00  0.106E+00  0.106E+00
   9.727  0.283E+00  0.944E-01  0.944E-01  0.944E-01
   9.737  0.251E+00  0.838E-01  0.838E-01  0.838E-01
   9.747  0.222E+00  0.740E-01  0.740E-01  0.740E-01
   9.757  0.195E+00  0.651E-01  0.651E-01  0.651E-01
   9.767  0.171E+00  0.570E-01  0.570E-01  0.570E-01
   9.777  0.149E+00  0.498E-01  0.498E-01  0.498E-01
   9.787  0.130E+00  0.433E-01  0.433E-01  0.433E-01
   9.797  0.113E+00  0.376E-01  0.376E-01  0.376E-01
   9.807  0.975E-01  0.325E-01  0.325E-01  0.325E-01
   9.817  0.844E-01  0.281E-01  0.281E-01  0.281E-01
   9.827  0.730E-01  0.243E-01  0.243E-01  0.243E-01
   9.837  0.632E-01  0.211E-01  0.211E-01  0.211E-01
   9.847  0.550E-01  0.183E-01  0.183E-01  0.183E-01
   9.857  0.482E-01  0.161E-01  0.161E-01  0.161E-01
   9.867  0.427E-01  0.142E-01  0.142E-01  0.142E-01
   9.877  0.384E-01  0.128E-01  0.128E-01  0.128E-01
   9.887  0.351E-01  0.117E-01  0.117E-01  0.117E-01
   9.897  0.329E-01  0.110E-01  0.110E-01  0.110E-01
   9.907  0.315E-01  0.105E-01  0.105E-01  0.105E-01
   9.917  0.311E-01  0.104E-01  0.104E-01  0.104E-01
   9.927  0.316E-01  0.105E-01  0.105E-01  0.105E-01
   9.937  0.328E-01  0.109E-01  0.109E-01  0.109E-01
   9.947  0.350E-01  0.117E-01  0.117E-01  0.117E-01
   9.957  0.381E-01  0.127E-01  0.127E-01  0.127E-01
   9.967  0.422E-01  0.141E-01  0.141E-01  0.141E-01
   9.977  0.474E-01  0.158E-01  0.158E-01  0.158E-01
   9.987  0.539E-01  0.180E-01  0.180E-01  0.180E-01
   9.997  0.619E-01  0.206E-01  0.206E-01  0.206E-01
  10.007  0.716E-01  0.239E-01  0.239E-01  0.239E-01
  10.017  0.832E-01  0.277E-01  0.277E-01  0.277E-01
  10.027  0.971E-01  0.324E-01  0.324E-01  0.324E-01
  10.037  0.113E+00  0.378E-01  0.378E-01  0.378E-01
  10.047  0.133E+00  0.442E-01  0.442E-01  0.442E-01
  10.057  0.154E+00  0.515E-01  0.515E-01  0.515E-01
  10.067  0.179E+00  0.598E-01  0.598E-01  0.598E-01
  10.077  0.208E+00  0.692E-01  0.692E-01  0.692E-01
  10.087  0.239E+00  0.796E-01  0.796E-01  0.796E-01
  10.097  0.273E+00  0.909E-01  0.909E-01  0.909E-01
  10.107  0.309E+00  0.103E+00  0.103E+00  0.103E+00
  10.117  0.348E+00  0.116E+00  0.116E+00  0.116E+00
  10.127  0.388E+00  0.129E+00  0.129E+00  0.129E+00
  10.137  0.429E+00  0.143E+00  0.143E+00  0.143E+00
  10.147  0.470E+00  0.157E+00  0.157E+00  0.157E+00
  10.157  0.510E+00  0.170E+00  0.170E+00  0.170E+00
  10.167  0.549E+00  0.183E+00  0.183E+00  0.183E+00
  10.177  0.584E+00  0.195E+00  0.195E+00  0.195E+00
  10.187  0.615E+00  0.205E+00  0.205E+00  0.205E+00
  10.197  0.641E+00  0.214E+00  0.214E+00  0.214E+00
  10.207  0.662E+00  0.221E+00  0.221E+00  0.221E+00
  10.217  0.677E+00  0.226E+00  0.226E+00  0.226E+00
  10.227  0.686E+00  0.229E+00  0.229E+00  0.229E+00
  10.237  0.687E+00  0.229E+00  0.229E+00  0.229E+00
  10.247  0.682E+00  0.227E+00  0.227E+00  0.227E+00
  10.257  0.671E+00  0.224E+00  0.224E+00  0.224E+00
  10.267  0.654E+00  0.218E+00  0.218E+00  0.218E+00
  10.277  0.632E+00  0.211E+00  0.211E+00  0.211E+00
  10.287  0.605E+00  0.202E+00  0.202E+00  0.202E+00
  10.297  0.575E+00  0.192E+00  0.192E+00  0.192E+00
  10.307  0.543E+00  0.181E+00  0.181E+00  0.181E+00
  10.317  0.508E+00  0.169E+00  0.169E+00  0.169E+00
  10.327  0.474E+00  0.158E+00  0.158E+00  0.158E+00
  10.337  0.439E+00  0.146E+00  0.146E+00  0.146E+00
  10.347  0.406E+00  0.135E+00  0.135E+00  0.135E+00
  10.357  0.374E+00  0.125E+00  0.125E+00  0.125E+00
  10.367  0.344E+00  0.115E+00  0.115E+00  0.115E+00
  10.377  0.317E+00  0.106E+00  0.106E+00  0.106E+00
  10.387  0.292E+00  0.974E-01  0.974E-01  0.974E-01
  10.397  0.270E+00  0.899E-01  0.899E-01  0.899E-01
  10.407  0.250E+00  0.833E-01  0.833E-01  0.833E-01
  10.417  0.233E+00  0.775E-01  0.775E-01  0.775E-01
  10.427  0.217E+00  0.724E-01  0.724E-01  0.724E-01
  10.437  0.204E+00  0.679E-01  0.679E-01  0.679E-01
  10.447  0.192E+00  0.639E-01  0.639E-01  0.639E-01
  10.457  0.181E+00  0.603E-01  0.603E-01  0.603E-01
  10.467  0.171E+00  0.570E-01  0.570E-01  0.570E-01
  10.477  0.162E+00  0.540E-01  0.540E-01  0.540E-01
  10.487  0.153E+00  0.511E-01  0.511E-01  0.511E-01
  10.497  0.145E+00  0.483E-01  0.483E-01  0.483E-01
  10.507  0.137E+00  0.455E-01  0.455E-01  0.455E-01
  10.517  0.128E+00  0.428E-01  0.428E-01  0.428E-01
  10.527  0.120E+00  0.401E-01  0.401E-01  0.401E-01
  10.537  0.112E+00  0.375E-01  0.375E-01  0.375E-01
  10.547  0.105E+00  0.349E-01  0.349E-01  0.349E-01
  10.557  0.970E-01  0.323E-01  0.323E-01  0.323E-01
  10.567  0.898E-01  0.299E-01  0.299E-01  0.299E-01
  10.577  0.831E-01  0.277E-01  0.277E-01  0.277E-01
  10.587  0.769E-01  0.256E-01  0.256E-01  0.256E-01
  10.597  0.715E-01  0.238E-01  0.238E-01  0.238E-01
  10.607  0.669E-01  0.223E-01  0.223E-01  0.223E-01
  10.617  0.632E-01  0.211E-01  0.211E-01  0.211E-01
  10.627  0.606E-01  0.202E-01  0.202E-01  0.202E-01
  10.637  0.592E-01  0.197E-01  0.197E-01  0.197E-01
  10.647  0.590E-01  0.197E-01  0.197E-01  0.197E-01
  10.657  0.601E-01  0.200E-01  0.200E-01  0.200E-01
  10.667  0.626E-01  0.209E-01  0.209E-01  0.209E-01
  10.677  0.665E-01  0.222E-01  0.222E-01  0.222E-01
  10.687  0.718E-01  0.239E-01  0.239E-01  0.239E-01
  10.697  0.787E-01  0.262E-01  0.262E-01  0.262E-01
  10.707  0.871E-01  0.290E-01  0.290E-01  0.290E-01
  10.717  0.971E-01  0.324E-01  0.324E-01  0.324E-01
  10.727  0.109E+00  0.363E-01  0.363E-01  0.363E-01
  10.737  0.122E+00  0.408E-01  0.408E-01  0.408E-01
  10.747  0.138E+00  0.458E-01  0.458E-01  0.458E-01
  10.757  0.155E+00  0.516E-01  0.516E-01  0.516E-01
  10.767  0.174E+00  0.580E-01  0.580E-01  0.580E-01
  10.777  0.195E+00  0.651E-01  0.651E-01  0.651E-01
  10.787  0.219E+00  0.729E-01  0.729E-01  0.729E-01
  10.797  0.245E+00  0.815E-01  0.815E-01  0.815E-01
  10.807  0.272E+00  0.908E-01  0.908E-01  0.908E-01
  10.817  0.303E+00  0.101E+00  0.101E+00  0.101E+00
  10.827  0.335E+00  0.112E+00  0.112E+00  0.112E+00
  10.837  0.368E+00  0.123E+00  0.123E+00  0.123E+00
  10.847  0.403E+00  0.134E+00  0.134E+00  0.134E+00
  10.857  0.439E+00  0.146E+00  0.146E+00  0.146E+00
  10.867  0.475E+00  0.158E+00  0.158E+00  0.158E+00
  10.877  0.511E+00  0.170E+00  0.170E+00  0.170E+00
  10.887  0.545E+00  0.182E+00  0.182E+00  0.182E+00
  10.897  0.577E+00  0.192E+00  0.192E+00  0.192E+00
  10.907  0.607E+00  0.202E+00  0.202E+00  0.202E+00
  10.917  0.632E+00  0.211E+00  0.211E+00  0.211E+00
  10.927  0.653E+00  0.218E+00  0.218E+00  0.218E+00
  10.937  0.668E+00  0.223E+00  0.223E+00  0.223E+00
  10.947  0.677E+00  0.226E+00  0.226E+00  0.226E+00
  10.957  0.680E+00  0.227E+00  0.227E+00  0.227E+00
  10.967  0.677E+00  0.226E+00  0.226E+00  0.226E+00
  10.977  0.667E+00  0.222E+00  0.222E+00  0.222E+00
  10.987  0.650E+00  0.217E+00  0.217E+00  0.217E+00
  10.997  0.628E+00  0.209E+00  0.209E+00  0.209E+00
  11.007  0.600E+00  0.200E+00  0.200E+00  0.200E+00
  11.017  0.567E+00  0.189E+00  0.189E+00  0.189E+00
  11.027  0.531E+00  0.177E+00  0.177E+00  0.177E+00
  11.037  0.492E+00  0.164E+00  0.164E+00  0.164E+00
  11.047  0.451E+00  0.150E+00  0.150E+00  0.150E+00
  11.057  0.409E+00  0.136E+00  0.136E+00  0.136E+00
  11.067  0.367E+00  0.122E+00  0.122E+00  0.122E+00
  11.077  0.325E+00  0.108E+00  0.108E+00  0.108E+00
  11.087  0.286E+00  0.953E-01  0.953E-01  0.953E-01
  11.097  0.248E+00  0.828E-01  0.828E-01  0.828E-01
  11.107  0.214E+00  0.712E-01  0.712E-01  0.712E-01
  11.117  0.182E+00  0.606E-01  0.606E-01  0.606E-01
  11.127  0.153E+00  0.510E-01  0.510E-01  0.510E-01
  11.137  0.127E+00  0.425E-01  0.425E-01  0.425E-01
  11.147  0.105E+00  0.350E-01  0.350E-01  0.350E-01
  11.157  0.855E-01  0.285E-01  0.285E-01  0.285E-01
  11.167  0.689E-01  0.230E-01  0.230E-01  0.230E-01
  11.177  0.550E-01  0.183E-01  0.183E-01  0.183E-01
  11.187  0.434E-01  0.145E-01  0.145E-01  0.145E-01
  11.197  0.338E-01  0.113E-01  0.113E-01  0.113E-01
  11.207  0.261E-01  0.871E-02  0.871E-02  0.871E-02
  11.217  0.200E-01  0.665E-02  0.665E-02  0.665E-02
  11.227  0.151E-01  0.503E-02  0.503E-02  0.503E-02
  11.237  0.113E-01  0.376E-02  0.376E-02  0.376E-02
  11.247  0.834E-02  0.278E-02  0.278E-02  0.278E-02
  11.257  0.610E-02  0.203E-02  0.203E-02  0.203E-02
  11.267  0.442E-02  0.147E-02  0.147E-02  0.147E-02
  11.277  0.317E-02  0.106E-02  0.106E-02  0.106E-02
  11.287  0.225E-02  0.749E-03  0.749E-03  0.749E-03
  11.297  0.158E-02  0.528E-03  0.528E-03  0.528E-03
  11.307  0.111E-02  0.371E-03  0.371E-03  0.371E-03
  11.317  0.787E-03  0.262E-03  0.262E-03  0.262E-03
  11.327  0.571E-03  0.190E-03  0.190E-03  0.190E-03
  11.337  0.442E-03  0.147E-03  0.147E-03  0.147E-03
  11.347  0.382E-03  0.127E-03  0.127E-03  0.127E-03
  11.357  0.387E-03  0.129E-03  0.129E-03  0.129E-03
  11.367  0.455E-03  0.152E-03  0.152E-03  0.152E-03
  11.377  0.596E-03  0.199E-03  0.199E-03  0.199E-03
  11.387  0.825E-03  0.275E-03  0.275E-03  0.275E-03
  11.397  0.117E-02  0.389E-03  0.389E-03  0.389E-03
  11.407  0.166E-02  0.553E-03  0.553E-03  0.553E-03
  11.417  0.235E-02  0.784E-03  0.784E-03  0.784E-03
  11.427  0.330E-02  0.110E-02  0.110E-02  0.110E-02
  11.437  0.460E-02  0.153E-02  0.153E-02  0.153E-02
  11.447  0.634E-02  0.211E-02  0.211E-02  0.211E-02
  11.457  0.864E-02  0.288E-02  0.288E-02  0.288E-02
  11.467  0.117E-01  0.389E-02  0.389E-02  0.389E-02
  11.477  0.156E-01  0.519E-02  0.519E-02  0.519E-02
  11.487  0.205E-01  0.685E-02  0.685E-02  0.685E-02
  11.497  0.268E-01  0.894E-02  0.894E-02  0.894E-02
  11.507  0.347E-01  0.116E-01  0.116E-01  0.116E-01
  11.517  0.443E-01  0.148E-01  0.148E-01  0.148E-01
  11.527  0.560E-01  0.187E-01  0.187E-01  0.187E-01
  11.537  0.701E-01  0.234E-01  0.234E-01  0.234E-01
  11.547  0.867E-01  0.289E-01  0.289E-01  0.289E-01
  11.557  0.106E+00  0.354E-01  0.354E-01  0.354E-01
  11.567  0.129E+00  0.428E-01  0.428E-01  0.428E-01
  11.577  0.154E+00  0.513E-01  0.513E-01  0.513E-01
  11.587  0.182E+00  0.608E-01  0.608E-01  0.608E-01
  11.597  0.214E+00  0.713E-01  0.713E-01  0.713E-01
  11.607  0.248E+00  0.827E-01  0.827E-01  0.827E-01
  11.617  0.285E+00  0.948E-01  0.948E-01  0.948E-01
  11.627  0.323E+00  0.108E+00  0.108E+00  0.108E+00
  11.637  0.363E+00  0.121E+00  0.121E+00  0.121E+00
  11.647  0.403E+00  0.134E+00  0.134E+00  0.134E+00
  11.657  0.442E+00  0.147E+00  0.147E+00  0.147E+00
  11.667  0.481E+00  0.160E+00  0.160E+00  0.160E+00
  11.677  0.517E+00  0.172E+00  0.172E+00  0.172E+00
  11.687  0.550E+00  0.183E+00  0.183E+00  0.183E+00
  11.697  0.579E+00  0.193E+00  0.193E+00  0.193E+00
  11.707  0.602E+00  0.201E+00  0.201E+00  0.201E+00
  11.717  0.620E+00  0.207E+00  0.207E+00  0.207E+00
  11.727  0.632E+00  0.211E+00  0.211E+00  0.211E+00
  11.737  0.637E+00  0.212E+00  0.212E+00  0.212E+00
  11.747  0.635E+00  0.212E+00  0.212E+00  0.212E+00
  11.757  0.626E+00  0.209E+00  0.209E+00  0.209E+00
  11.767  0.611E+00  0.204E+00  0.204E+00  0.204E+00
  11.777  0.589E+00  0.196E+00  0.196E+00  0.196E+00
  11.787  0.563E+00  0.188E+00  0.188E+00  0.188E+00
  11.797  0.531E+00  0.177E+00  0.177E+00  0.177E+00
  11.807  0.497E+00  0.166E+00  0.166E+00  0.166E+00
  11.817  0.459E+00  0.153E+00  0.153E+00  0.153E+00
  11.827  0.420E+00  0.140E+00  0.140E+00  0.140E+00
  11.837  0.380E+00  0.127E+00  0.127E+00  0.127E+00
  11.847  0.340E+00  0.113E+00  0.113E+00  0.113E+00
  11.857  0.301E+00  0.100E+00  0.100E+00  0.100E+00
  11.867  0.263E+00  0.878E-01  0.878E-01  0.878E-01
  11.877  0.228E+00  0.760E-01  0.760E-01  0.760E-01
  11.887  0.195E+00  0.652E-01  0.652E-01  0.652E-01
  11.897  0.166E+00  0.552E-01  0.552E-01  0.552E-01
  11.907  0.139E+00  0.463E-01  0.463E-01  0.463E-01
  11.917  0.115E+00  0.384E-01  0.384E-01  0.384E-01
  11.927  0.946E-01  0.315E-01  0.315E-01  0.315E-01
  11.937  0.768E-01  0.256E-01  0.256E-01  0.256E-01
  11.947  0.617E-01  0.206E-01  0.206E-01  0.206E-01
  11.957  0.490E-01  0.163E-01  0.163E-01  0.163E-01
  11.967  0.385E-01  0.128E-01  0.128E-01  0.128E-01
  11.977  0.300E-01  0.999E-02  0.999E-02  0.999E-02
  11.987  0.230E-01  0.768E-02  0.768E-02  0.768E-02
  11.997  0.175E-01  0.585E-02  0.585E-02  0.585E-02
  12.007  0.132E-01  0.440E-02  0.440E-02  0.440E-02
  12.017  0.983E-02  0.328E-02  0.328E-02  0.328E-02
  12.027  0.724E-02  0.241E-02  0.241E-02  0.241E-02
  12.037  0.528E-02  0.176E-02  0.176E-02  0.176E-02
  12.047  0.381E-02  0.127E-02  0.127E-02  0.127E-02
  12.057  0.272E-02  0.905E-03  0.905E-03  0.905E-03
  12.067  0.192E-02  0.639E-03  0.639E-03  0.639E-03
  12.077  0.134E-02  0.447E-03  0.447E-03  0.447E-03
  12.087  0.930E-03  0.310E-03  0.310E-03  0.310E-03
  12.097  0.643E-03  0.214E-03  0.214E-03  0.214E-03
  12.107  0.446E-03  0.149E-03  0.149E-03  0.149E-03
  12.117  0.317E-03  0.106E-03  0.106E-03  0.106E-03
  12.127  0.239E-03  0.798E-04  0.798E-04  0.798E-04
  12.137  0.203E-03  0.677E-04  0.677E-04  0.677E-04
  12.147  0.203E-03  0.677E-04  0.677E-04  0.677E-04
  12.157  0.239E-03  0.798E-04  0.798E-04  0.798E-04
  12.167  0.317E-03  0.106E-03  0.106E-03  0.106E-03
  12.177  0.446E-03  0.149E-03  0.149E-03  0.149E-03
  12.187  0.642E-03  0.214E-03  0.214E-03  0.214E-03
  12.197  0.928E-03  0.309E-03  0.309E-03  0.309E-03
  12.207  0.134E-02  0.445E-03  0.445E-03  0.445E-03
  12.217  0.191E-02  0.636E-03  0.636E-03  0.636E-03
  12.227  0.270E-02  0.900E-03  0.900E-03  0.900E-03
  12.237  0.378E-02  0.126E-02  0.126E-02  0.126E-02
  12.247  0.524E-02  0.175E-02  0.175E-02  0.175E-02
  12.257  0.718E-02  0.239E-02  0.239E-02  0.239E-02
  12.267  0.973E-02  0.324E-02  0.324E-02  0.324E-02
  12.277  0.131E-01  0.435E-02  0.435E-02  0.435E-02
  12.287  0.173E-01  0.578E-02  0.578E-02  0.578E-02
  12.297  0.228E-01  0.758E-02  0.758E-02  0.758E-02
  12.307  0.295E-01  0.985E-02  0.985E-02  0.985E-02
  12.317  0.380E-01  0.127E-01  0.127E-01  0.127E-01
  12.327  0.483E-01  0.161E-01  0.161E-01  0.161E-01
  12.337  0.607E-01  0.202E-01  0.202E-01  0.202E-01
  12.347  0.755E-01  0.252E-01  0.252E-01  0.252E-01
  12.357  0.928E-01  0.309E-01  0.309E-01  0.309E-01
  12.367  0.113E+00  0.377E-01  0.377E-01  0.377E-01
  12.377  0.136E+00  0.454E-01  0.454E-01  0.454E-01
  12.387  0.162E+00  0.540E-01  0.540E-01  0.540E-01
  12.397  0.191E+00  0.637E-01  0.637E-01  0.637E-01
  12.407  0.223E+00  0.742E-01  0.742E-01  0.742E-01
  12.417  0.257E+00  0.856E-01  0.856E-01  0.856E-01
  12.427  0.293E+00  0.976E-01  0.976E-01  0.976E-01
  12.437  0.331E+00  0.110E+00  0.110E+00  0.110E+00
  12.447  0.369E+00  0.123E+00  0.123E+00  0.123E+00
  12.457  0.408E+00  0.136E+00  0.136E+00  0.136E+00
  12.467  0.445E+00  0.148E+00  0.148E+00  0.148E+00
  12.477  0.481E+00  0.160E+00  0.160E+00  0.160E+00
  12.487  0.515E+00  0.172E+00  0.172E+00  0.172E+00
  12.497  0.544E+00  0.181E+00  0.181E+00  0.181E+00
  12.507  0.570E+00  0.190E+00  0.190E+00  0.190E+00
  12.517  0.590E+00  0.197E+00  0.197E+00  0.197E+00
  12.527  0.604E+00  0.201E+00  0.201E+00  0.201E+00
  12.537  0.612E+00  0.204E+00  0.204E+00  0.204E+00
  12.547  0.613E+00  0.204E+00  0.204E+00  0.204E+00
  12.557  0.608E+00  0.203E+00  0.203E+00  0.203E+00
  12.567  0.597E+00  0.199E+00  0.199E+00  0.199E+00
  12.577  0.579E+00  0.193E+00  0.193E+00  0.193E+00
  12.587  0.556E+00  0.185E+00  0.185E+00  0.185E+00
  12.597  0.528E+00  0.176E+00  0.176E+00  0.176E+00
  12.607  0.497E+00  0.166E+00  0.166E+00  0.166E+00
  12.617  0.462E+00  0.154E+00  0.154E+00  0.154E+00
  12.627  0.425E+00  0.142E+00  0.142E+00  0.142E+00
  12.637  0.388E+00  0.129E+00  0.129E+00  0.129E+00
  12.647  0.349E+00  0.116E+00  0.116E+00  0.116E+00
  12.657  0.312E+00  0.104E+00  0.104E+00  0.104E+00
  12.667  0.276E+00  0.919E-01  0.919E-01  0.919E-01
  12.677  0.241E+00  0.804E-01  0.804E-01  0.804E-01
  12.687  0.209E+00  0.697E-01  0.697E-01  0.697E-01
  12.697  0.180E+00  0.599E-01  0.599E-01  0.599E-01
  12.707  0.153E+00  0.510E-01  0.510E-01  0.510E-01
  12.717  0.129E+00  0.430E-01  0.430E-01  0.430E-01
  12.727  0.108E+00  0.361E-01  0.361E-01  0.361E-01
  12.737  0.900E-01  0.300E-01  0.300E-01  0.300E-01
  12.747  0.745E-01  0.248E-01  0.248E-01  0.248E-01
  12.757  0.613E-01  0.204E-01  0.204E-01  0.204E-01
  12.767  0.502E-01  0.167E-01  0.167E-01  0.167E-01
  12.777  0.410E-01  0.137E-01  0.137E-01  0.137E-01
  12.787  0.334E-01  0.111E-01  0.111E-01  0.111E-01
  12.797  0.273E-01  0.909E-02  0.909E-02  0.909E-02
  12.807  0.223E-01  0.742E-02  0.742E-02  0.742E-02
  12.817  0.182E-01  0.607E-02  0.607E-02  0.607E-02
  12.827  0.150E-01  0.498E-02  0.498E-02  0.498E-02
  12.837  0.123E-01  0.411E-02  0.411E-02  0.411E-02
  12.847  0.102E-01  0.341E-02  0.341E-02  0.341E-02
  12.857  0.855E-02  0.285E-02  0.285E-02  0.285E-02
  12.867  0.721E-02  0.240E-02  0.240E-02  0.240E-02
  12.877  0.616E-02  0.205E-02  0.205E-02  0.205E-02
  12.887  0.534E-02  0.178E-02  0.178E-02  0.178E-02
  12.897  0.473E-02  0.158E-02  0.158E-02  0.158E-02
  12.907  0.432E-02  0.144E-02  0.144E-02  0.144E-02
  12.917  0.408E-02  0.136E-02  0.136E-02  0.136E-02
  12.927  0.403E-02  0.134E-02  0.134E-02  0.134E-02
  12.937  0.417E-02  0.139E-02  0.139E-02  0.139E-02
  12.947  0.449E-02  0.150E-02  0.150E-02  0.150E-02
  12.957  0.502E-02  0.167E-02  0.167E-02  0.167E-02
  12.967  0.576E-02  0.192E-02  0.192E-02  0.192E-02
  12.977  0.674E-02  0.225E-02  0.225E-02  0.225E-02
  12.987  0.796E-02  0.265E-02  0.265E-02  0.265E-02
  12.997  0.945E-02  0.315E-02  0.315E-02  0.315E-02
  13.007  0.112E-01  0.374E-02  0.374E-02  0.374E-02
  13.017  0.133E-01  0.442E-02  0.442E-02  0.442E-02
  13.027  0.156E-01  0.521E-02  0.521E-02  0.521E-02
  13.037  0.183E-01  0.611E-02  0.611E-02  0.611E-02
  13.047  0.214E-01  0.712E-02  0.712E-02  0.712E-02
  13.057  0.248E-01  0.826E-02  0.826E-02  0.826E-02
  13.067  0.286E-01  0.953E-02  0.953E-02  0.953E-02
  13.077  0.329E-01  0.110E-01  0.110E-01  0.110E-01
  13.087  0.376E-01  0.125E-01  0.125E-01  0.125E-01
  13.097  0.429E-01  0.143E-01  0.143E-01  0.143E-01
  13.107  0.489E-01  0.163E-01  0.163E-01  0.163E-01
  13.117  0.557E-01  0.186E-01  0.186E-01  0.186E-01
  13.127  0.634E-01  0.211E-01  0.211E-01  0.211E-01
  13.137  0.721E-01  0.240E-01  0.240E-01  0.240E-01
  13.147  0.822E-01  0.274E-01  0.274E-01  0.274E-01
  13.157  0.937E-01  0.312E-01  0.312E-01  0.312E-01
  13.167  0.107E+00  0.357E-01  0.357E-01  0.357E-01
  13.177  0.122E+00  0.407E-01  0.407E-01  0.407E-01
  13.187  0.139E+00  0.465E-01  0.465E-01  0.465E-01
  13.197  0.159E+00  0.530E-01  0.530E-01  0.530E-01
  13.207  0.181E+00  0.603E-01  0.603E-01  0.603E-01
  13.217  0.205E+00  0.685E-01  0.685E-01  0.685E-01
  13.227  0.232E+00  0.774E-01  0.774E-01  0.774E-01
  13.237  0.261E+00  0.871E-01  0.871E-01  0.871E-01
  13.247  0.292E+00  0.974E-01  0.974E-01  0.974E-01
  13.257  0.325E+00  0.108E+00  0.108E+00  0.108E+00
  13.267  0.359E+00  0.120E+00  0.120E+00  0.120E+00
  13.277  0.393E+00  0.131E+00  0.131E+00  0.131E+00
  13.287  0.427E+00  0.142E+00  0.142E+00  0.142E+00
  13.297  0.460E+00  0.153E+00  0.153E+00  0.153E+00
  13.307  0.490E+00  0.163E+00  0.163E+00  0.163E+00
  13.317  0.518E+00  0.173E+00  0.173E+00  0.173E+00
  13.327  0.543E+00  0.181E+00  0.181E+00  0.181E+00
  13.337  0.562E+00  0.187E+00  0.187E+00  0.187E+00
  13.347  0.577E+00  0.192E+00  0.192E+00  0.192E+00
  13.357  0.586E+00  0.195E+00  0.195E+00  0.195E+00
  13.367  0.589E+00  0.196E+00  0.196E+00  0.196E+00
  13.377  0.586E+00  0.195E+00  0.195E+00  0.195E+00
  13.387  0.577E+00  0.192E+00  0.192E+00  0.192E+00
  13.397  0.563E+00  0.188E+00  0.188E+00  0.188E+00
  13.407  0.542E+00  0.181E+00  0.181E+00  0.181E+00
  13.417  0.517E+00  0.172E+00  0.172E+00  0.172E+00
  13.427  0.488E+00  0.163E+00  0.163E+00  0.163E+00
  13.437  0.456E+00  0.152E+00  0.152E+00  0.152E+00
  13.447  0.421E+00  0.140E+00  0.140E+00  0.140E+00
  13.457  0.385E+00  0.128E+00  0.128E+00  0.128E+00
  13.467  0.348E+00  0.116E+00  0.116E+00  0.116E+00
  13.477  0.311E+00  0.104E+00  0.104E+00  0.104E+00
  13.487  0.275E+00  0.917E-01  0.917E-01  0.917E-01
  13.497  0.241E+00  0.803E-01  0.803E-01  0.803E-01
  13.507  0.209E+00  0.695E-01  0.695E-01  0.695E-01
  13.517  0.179E+00  0.596E-01  0.596E-01  0.596E-01
  13.527  0.151E+00  0.505E-01  0.505E-01  0.505E-01
  13.537  0.127E+00  0.423E-01  0.423E-01  0.423E-01
  13.547  0.105E+00  0.351E-01  0.351E-01  0.351E-01
  13.557  0.865E-01  0.288E-01  0.288E-01  0.288E-01
  13.567  0.703E-01  0.234E-01  0.234E-01  0.234E-01
  13.577  0.565E-01  0.188E-01  0.188E-01  0.188E-01
  13.587  0.449E-01  0.150E-01  0.150E-01  0.150E-01
  13.597  0.354E-01  0.118E-01  0.118E-01  0.118E-01
  13.607  0.276E-01  0.920E-02  0.920E-02  0.920E-02
  13.617  0.213E-01  0.711E-02  0.711E-02  0.711E-02
  13.627  0.163E-01  0.545E-02  0.545E-02  0.545E-02
  13.637  0.125E-01  0.415E-02  0.415E-02  0.415E-02
  13.647  0.945E-02  0.315E-02  0.315E-02  0.315E-02
  13.657  0.717E-02  0.239E-02  0.239E-02  0.239E-02
  13.667  0.548E-02  0.183E-02  0.183E-02  0.183E-02
  13.677  0.425E-02  0.142E-02  0.142E-02  0.142E-02
  13.687  0.339E-02  0.113E-02  0.113E-02  0.113E-02
  13.697  0.283E-02  0.943E-03  0.943E-03  0.943E-03
  13.707  0.251E-02  0.837E-03  0.837E-03  0.837E-03
  13.717  0.239E-02  0.797E-03  0.797E-03  0.797E-03
  13.727  0.245E-02  0.816E-03  0.816E-03  0.816E-03
  13.737  0.267E-02  0.889E-03  0.889E-03  0.889E-03
  13.747  0.305E-02  0.102E-02  0.102E-02  0.102E-02
  13.757  0.359E-02  0.120E-02  0.120E-02  0.120E-02
  13.767  0.431E-02  0.144E-02  0.144E-02  0.144E-02
  13.777  0.522E-02  0.174E-02  0.174E-02  0.174E-02
  13.787  0.635E-02  0.212E-02  0.212E-02  0.212E-02
  13.797  0.772E-02  0.257E-02  0.257E-02  0.257E-02
  13.807  0.936E-02  0.312E-02  0.312E-02  0.312E-02
  13.817  0.113E-01  0.376E-02  0.376E-02  0.376E-02
  13.827  0.135E-01  0.450E-02  0.450E-02  0.450E-02
  13.837  0.161E-01  0.535E-02  0.535E-02  0.535E-02
  13.847  0.190E-01  0.632E-02  0.632E-02  0.632E-02
  13.857  0.222E-01  0.740E-02  0.740E-02  0.740E-02
  13.867  0.258E-01  0.859E-02  0.859E-02  0.859E-02
  13.877  0.297E-01  0.990E-02  0.990E-02  0.990E-02
  13.887  0.339E-01  0.113E-01  0.113E-01  0.113E-01
  13.897  0.385E-01  0.128E-01  0.128E-01  0.128E-01
  13.907  0.434E-01  0.145E-01  0.145E-01  0.145E-01
  13.917  0.487E-01  0.162E-01  0.162E-01  0.162E-01
  13.927  0.542E-01  0.181E-01  0.181E-01  0.181E-01
  13.937  0.602E-01  0.201E-01  0.201E-01  0.201E-01
  13.947  0.666E-01  0.222E-01  0.222E-01  0.222E-01
  13.957  0.735E-01  0.245E-01  0.245E-01  0.245E-01
  13.967  0.810E-01  0.270E-01  0.270E-01  0.270E-01
  13.977  0.893E-01  0.298E-01  0.298E-01  0.298E-01
  13.987  0.985E-01  0.328E-01  0.328E-01  0.328E-01
  13.997  0.109E+00  0.363E-01  0.363E-01  0.363E-01
  14.007  0.121E+00  0.402E-01  0.402E-01  0.402E-01
  14.017  0.134E+00  0.447E-01  0.447E-01  0.447E-01
  14.027  0.149E+00  0.497E-01  0.497E-01  0.497E-01
  14.037  0.166E+00  0.554E-01  0.554E-01  0.554E-01
  14.047  0.186E+00  0.619E-01  0.619E-01  0.619E-01
  14.057  0.207E+00  0.690E-01  0.690E-01  0.690E-01
  14.067  0.231E+00  0.770E-01  0.770E-01  0.770E-01
  14.077  0.257E+00  0.856E-01  0.856E-01  0.856E-01
  14.087  0.285E+00  0.949E-01  0.949E-01  0.949E-01
  14.097  0.314E+00  0.105E+00  0.105E+00  0.105E+00
  14.107  0.345E+00  0.115E+00  0.115E+00  0.115E+00
  14.117  0.376E+00  0.125E+00  0.125E+00  0.125E+00
  14.127  0.407E+00  0.136E+00  0.136E+00  0.136E+00
  14.137  0.437E+00  0.146E+00  0.146E+00  0.146E+00
  14.147  0.466E+00  0.155E+00  0.155E+00  0.155E+00
  14.157  0.492E+00  0.164E+00  0.164E+00  0.164E+00
  14.167  0.514E+00  0.171E+00  0.171E+00  0.171E+00
  14.177  0.533E+00  0.178E+00  0.178E+00  0.178E+00
  14.187  0.547E+00  0.182E+00  0.182E+00  0.182E+00
  14.197  0.556E+00  0.185E+00  0.185E+00  0.185E+00
  14.207  0.559E+00  0.186E+00  0.186E+00  0.186E+00
  14.217  0.556E+00  0.185E+00  0.185E+00  0.185E+00
  14.227  0.548E+00  0.183E+00  0.183E+00  0.183E+00
  14.237  0.534E+00  0.178E+00  0.178E+00  0.178E+00
  14.247  0.515E+00  0.172E+00  0.172E+00  0.172E+00
  14.257  0.492E+00  0.164E+00  0.164E+00  0.164E+00
  14.267  0.464E+00  0.155E+00  0.155E+00  0.155E+00
  14.277  0.434E+00  0.145E+00  0.145E+00  0.145E+00
  14.287  0.401E+00  0.134E+00  0.134E+00  0.134E+00
  14.297  0.367E+00  0.122E+00  0.122E+00  0.122E+00
  14.307  0.332E+00  0.111E+00  0.111E+00  0.111E+00
  14.317  0.297E+00  0.991E-01  0.991E-01  0.991E-01
  14.327  0.263E+00  0.877E-01  0.877E-01  0.877E-01
  14.337  0.231E+00  0.768E-01  0.768E-01  0.768E-01
  14.347  0.200E+00  0.666E-01  0.666E-01  0.666E-01
  14.357  0.171E+00  0.571E-01  0.571E-01  0.571E-01
  14.367  0.145E+00  0.484E-01  0.484E-01  0.484E-01
  14.377  0.122E+00  0.406E-01  0.406E-01  0.406E-01
  14.387  0.101E+00  0.337E-01  0.337E-01  0.337E-01
  14.397  0.831E-01  0.277E-01  0.277E-01  0.277E-01
  14.407  0.675E-01  0.225E-01  0.225E-01  0.225E-01
  14.417  0.542E-01  0.181E-01  0.181E-01  0.181E-01
  14.427  0.431E-01  0.144E-01  0.144E-01  0.144E-01
  14.437  0.339E-01  0.113E-01  0.113E-01  0.113E-01
  14.447  0.264E-01  0.879E-02  0.879E-02  0.879E-02
  14.457  0.203E-01  0.677E-02  0.677E-02  0.677E-02
  14.467  0.155E-01  0.515E-02  0.515E-02  0.515E-02
  14.477  0.116E-01  0.388E-02  0.388E-02  0.388E-02
  14.487  0.868E-02  0.289E-02  0.289E-02  0.289E-02
  14.497  0.640E-02  0.213E-02  0.213E-02  0.213E-02
  14.507  0.466E-02  0.155E-02  0.155E-02  0.155E-02
  14.517  0.337E-02  0.112E-02  0.112E-02  0.112E-02
  14.527  0.241E-02  0.802E-03  0.802E-03  0.802E-03
  14.537  0.170E-02  0.567E-03  0.567E-03  0.567E-03
  14.547  0.120E-02  0.399E-03  0.399E-03  0.399E-03
  14.557  0.837E-03  0.279E-03  0.279E-03  0.279E-03
  14.567  0.588E-03  0.196E-03  0.196E-03  0.196E-03
  14.577  0.422E-03  0.141E-03  0.141E-03  0.141E-03
  14.587  0.318E-03  0.106E-03  0.106E-03  0.106E-03
  14.597  0.264E-03  0.881E-04  0.881E-04  0.881E-04
  14.607  0.251E-03  0.837E-04  0.837E-04  0.837E-04
  14.617  0.275E-03  0.918E-04  0.918E-04  0.918E-04
  14.627  0.338E-03  0.113E-03  0.113E-03  0.113E-03
  14.637  0.442E-03  0.147E-03  0.147E-03  0.147E-03
  14.647  0.598E-03  0.199E-03  0.199E-03  0.199E-03
  14.657  0.817E-03  0.272E-03  0.272E-03  0.272E-03
  14.667  0.111E-02  0.372E-03  0.372E-03  0.372E-03
  14.677  0.151E-02  0.505E-03  0.505E-03  0.505E-03
  14.687  0.204E-02  0.680E-03  0.680E-03  0.680E-03
  14.697  0.273E-02  0.910E-03  0.910E-03  0.910E-03
  14.707  0.362E-02  0.121E-02  0.121E-02  0.121E-02
  14.717  0.476E-02  0.159E-02  0.159E-02  0.159E-02
  14.727  0.621E-02  0.207E-02  0.207E-02  0.207E-02
  14.737  0.803E-02  0.268E-02  0.268E-02  0.268E-02
  14.747  0.103E-01  0.343E-02  0.343E-02  0.343E-02
  14.757  0.131E-01  0.437E-02  0.437E-02  0.437E-02
  14.767  0.166E-01  0.552E-02  0.552E-02  0.552E-02
  14.777  0.208E-01  0.692E-02  0.692E-02  0.692E-02
  14.787  0.259E-01  0.862E-02  0.862E-02  0.862E-02
  14.797  0.319E-01  0.106E-01  0.106E-01  0.106E-01
  14.807  0.392E-01  0.131E-01  0.131E-01  0.131E-01
  14.817  0.477E-01  0.159E-01  0.159E-01  0.159E-01
  14.827  0.578E-01  0.193E-01  0.193E-01  0.193E-01
  14.837  0.694E-01  0.231E-01  0.231E-01  0.231E-01
  14.847  0.828E-01  0.276E-01  0.276E-01  0.276E-01
  14.857  0.981E-01  0.327E-01  0.327E-01  0.327E-01
  14.867  0.115E+00  0.385E-01  0.385E-01  0.385E-01
  14.877  0.135E+00  0.450E-01  0.450E-01  0.450E-01
  14.887  0.157E+00  0.522E-01  0.522E-01  0.522E-01
  14.897  0.180E+00  0.601E-01  0.601E-01  0.601E-01
  14.907  0.206E+00  0.687E-01  0.687E-01  0.687E-01
  14.917  0.234E+00  0.780E-01  0.780E-01  0.780E-01
  14.927  0.263E+00  0.878E-01  0.878E-01  0.878E-01
  14.937  0.294E+00  0.980E-01  0.980E-01  0.980E-01
  14.947  0.326E+00  0.109E+00  0.109E+00  0.109E+00
  14.957  0.358E+00  0.119E+00  0.119E+00  0.119E+00
  14.967  0.390E+00  0.130E+00  0.130E+00  0.130E+00
  14.977  0.421E+00  0.140E+00  0.140E+00  0.140E+00
  14.987  0.451E+00  0.150E+00  0.150E+00  0.150E+00
  14.997  0.479E+00  0.160E+00  0.160E+00  0.160E+00
  15.007  0.503E+00  0.168E+00  0.168E+00  0.168E+00
  15.017  0.524E+00  0.175E+00  0.175E+00  0.175E+00
  15.027  0.540E+00  0.180E+00  0.180E+00  0.180E+00
  15.037  0.552E+00  0.184E+00  0.184E+00  0.184E+00
  15.047  0.559E+00  0.186E+00  0.186E+00  0.186E+00
  15.057  0.560E+00  0.187E+00  0.187E+00  0.187E+00
  15.067  0.555E+00  0.185E+00  0.185E+00  0.185E+00
  15.077  0.546E+00  0.182E+00  0.182E+00  0.182E+00
  15.087  0.530E+00  0.177E+00  0.177E+00  0.177E+00
  15.097  0.511E+00  0.170E+00  0.170E+00  0.170E+00
  15.107  0.486E+00  0.162E+00  0.162E+00  0.162E+00
  15.117  0.459E+00  0.153E+00  0.153E+00  0.153E+00
  15.127  0.428E+00  0.143E+00  0.143E+00  0.143E+00
  15.137  0.395E+00  0.132E+00  0.132E+00  0.132E+00
  15.147  0.361E+00  0.120E+00  0.120E+00  0.120E+00
  15.157  0.327E+00  0.109E+00  0.109E+00  0.109E+00
  15.167  0.292E+00  0.974E-01  0.974E-01  0.974E-01
  15.177  0.259E+00  0.862E-01  0.862E-01  0.862E-01
  15.187  0.227E+00  0.756E-01  0.756E-01  0.756E-01
  15.197  0.196E+00  0.655E-01  0.655E-01  0.655E-01
  15.207  0.169E+00  0.562E-01  0.562E-01  0.562E-01
  15.217  0.143E+00  0.477E-01  0.477E-01  0.477E-01
  15.227  0.120E+00  0.400E-01  0.400E-01  0.400E-01
  15.237  0.997E-01  0.332E-01  0.332E-01  0.332E-01
  15.247  0.820E-01  0.273E-01  0.273E-01  0.273E-01
  15.257  0.666E-01  0.222E-01  0.222E-01  0.222E-01
  15.267  0.536E-01  0.179E-01  0.179E-01  0.179E-01
  15.277  0.427E-01  0.142E-01  0.142E-01  0.142E-01
  15.287  0.336E-01  0.112E-01  0.112E-01  0.112E-01
  15.297  0.262E-01  0.872E-02  0.872E-02  0.872E-02
  15.307  0.202E-01  0.672E-02  0.672E-02  0.672E-02
  15.317  0.154E-01  0.512E-02  0.512E-02  0.512E-02
  15.327  0.116E-01  0.386E-02  0.386E-02  0.386E-02
  15.337  0.864E-02  0.288E-02  0.288E-02  0.288E-02
  15.347  0.638E-02  0.213E-02  0.213E-02  0.213E-02
  15.357  0.466E-02  0.155E-02  0.155E-02  0.155E-02
  15.367  0.336E-02  0.112E-02  0.112E-02  0.112E-02
  15.377  0.240E-02  0.801E-03  0.801E-03  0.801E-03
  15.387  0.170E-02  0.567E-03  0.567E-03  0.567E-03
  15.397  0.119E-02  0.396E-03  0.396E-03  0.396E-03
  15.407  0.823E-03  0.274E-03  0.274E-03  0.274E-03
  15.417  0.565E-03  0.188E-03  0.188E-03  0.188E-03
  15.427  0.384E-03  0.128E-03  0.128E-03  0.128E-03
  15.437  0.261E-03  0.868E-04  0.868E-04  0.868E-04
  15.447  0.178E-03  0.593E-04  0.593E-04  0.593E-04
  15.457  0.125E-03  0.417E-04  0.417E-04  0.417E-04
  15.467  0.950E-04  0.317E-04  0.317E-04  0.317E-04
  15.477  0.829E-04  0.276E-04  0.276E-04  0.276E-04
  15.487  0.871E-04  0.290E-04  0.290E-04  0.290E-04
  15.497  0.108E-03  0.361E-04  0.361E-04  0.361E-04
  15.507  0.150E-03  0.498E-04  0.498E-04  0.498E-04
  15.517  0.217E-03  0.724E-04  0.724E-04  0.724E-04
  15.527  0.320E-03  0.107E-03  0.107E-03  0.107E-03
  15.537  0.473E-03  0.158E-03  0.158E-03  0.158E-03
  15.547  0.694E-03  0.231E-03  0.231E-03  0.231E-03
  15.557  0.101E-02  0.337E-03  0.337E-03  0.337E-03
  15.567  0.145E-02  0.485E-03  0.485E-03  0.485E-03
  15.577  0.207E-02  0.691E-03  0.691E-03  0.691E-03
  15.587  0.292E-02  0.974E-03  0.974E-03  0.974E-03
  15.597  0.408E-02  0.136E-02  0.136E-02  0.136E-02
  15.607  0.563E-02  0.188E-02  0.188E-02  0.188E-02
  15.617  0.768E-02  0.256E-02  0.256E-02  0.256E-02
  15.627  0.104E-01  0.346E-02  0.346E-02  0.346E-02
  15.637  0.139E-01  0.462E-02  0.462E-02  0.462E-02
  15.647  0.183E-01  0.611E-02  0.611E-02  0.611E-02
  15.657  0.240E-01  0.799E-02  0.799E-02  0.799E-02
  15.667  0.310E-01  0.103E-01  0.103E-01  0.103E-01
  15.677  0.397E-01  0.132E-01  0.132E-01  0.132E-01
  15.687  0.503E-01  0.168E-01  0.168E-01  0.168E-01
  15.697  0.630E-01  0.210E-01  0.210E-01  0.210E-01
  15.707  0.780E-01  0.260E-01  0.260E-01  0.260E-01
  15.717  0.957E-01  0.319E-01  0.319E-01  0.319E-01
  15.727  0.116E+00  0.387E-01  0.387E-01  0.387E-01
  15.737  0.139E+00  0.464E-01  0.464E-01  0.464E-01
  15.747  0.165E+00  0.551E-01  0.551E-01  0.551E-01
  15.757  0.194E+00  0.647E-01  0.647E-01  0.647E-01
  15.767  0.225E+00  0.751E-01  0.751E-01  0.751E-01
  15.777  0.259E+00  0.864E-01  0.864E-01  0.864E-01
  15.787  0.295E+00  0.982E-01  0.982E-01  0.982E-01
  15.797  0.331E+00  0.110E+00  0.110E+00  0.110E+00
  15.807  0.369E+00  0.123E+00  0.123E+00  0.123E+00
  15.817  0.406E+00  0.135E+00  0.135E+00  0.135E+00
  15.827  0.442E+00  0.147E+00  0.147E+00  0.147E+00
  15.837  0.476E+00  0.159E+00  0.159E+00  0.159E+00
  15.847  0.508E+00  0.169E+00  0.169E+00  0.169E+00
  15.857  0.535E+00  0.178E+00  0.178E+00  0.178E+00
  15.867  0.559E+00  0.186E+00  0.186E+00  0.186E+00
  15.877  0.577E+00  0.192E+00  0.192E+00  0.192E+00
  15.887  0.589E+00  0.196E+00  0.196E+00  0.196E+00
  15.897  0.595E+00  0.198E+00  0.198E+00  0.198E+00
  15.907  0.594E+00  0.198E+00  0.198E+00  0.198E+00
  15.917  0.588E+00  0.196E+00  0.196E+00  0.196E+00
  15.927  0.575E+00  0.192E+00  0.192E+00  0.192E+00
  15.937  0.556E+00  0.185E+00  0.185E+00  0.185E+00
  15.947  0.532E+00  0.177E+00  0.177E+00  0.177E+00
  15.957  0.504E+00  0.168E+00  0.168E+00  0.168E+00
  15.967  0.473E+00  0.158E+00  0.158E+00  0.158E+00
  15.977  0.438E+00  0.146E+00  0.146E+00  0.146E+00
  15.987  0.402E+00  0.134E+00  0.134E+00  0.134E+00
  15.997  0.364E+00  0.121E+00  0.121E+00  0.121E+00
  16.007  0.327E+00  0.109E+00  0.109E+00  0.109E+00
  16.017  0.291E+00  0.968E-01  0.968E-01  0.968E-01
  16.027  0.255E+00  0.851E-01  0.851E-01  0.851E-01
  16.037  0.222E+00  0.740E-01  0.740E-01  0.740E-01
  16.047  0.191E+00  0.636E-01  0.636E-01  0.636E-01
  16.057  0.162E+00  0.541E-01  0.541E-01  0.541E-01
  16.067  0.137E+00  0.456E-01  0.456E-01  0.456E-01
  16.077  0.114E+00  0.380E-01  0.380E-01  0.380E-01
  16.087  0.939E-01  0.313E-01  0.313E-01  0.313E-01
  16.097  0.767E-01  0.256E-01  0.256E-01  0.256E-01
  16.107  0.621E-01  0.207E-01  0.207E-01  0.207E-01
  16.117  0.498E-01  0.166E-01  0.166E-01  0.166E-01
  16.127  0.398E-01  0.133E-01  0.133E-01  0.133E-01
  16.137  0.317E-01  0.106E-01  0.106E-01  0.106E-01
  16.147  0.254E-01  0.846E-02  0.846E-02  0.846E-02
  16.157  0.207E-01  0.689E-02  0.689E-02  0.689E-02
  16.167  0.173E-01  0.578E-02  0.578E-02  0.578E-02
  16.177  0.153E-01  0.510E-02  0.510E-02  0.510E-02
  16.187  0.144E-01  0.481E-02  0.481E-02  0.481E-02
  16.197  0.147E-01  0.491E-02  0.491E-02  0.491E-02
  16.207  0.161E-01  0.537E-02  0.537E-02  0.537E-02
  16.217  0.186E-01  0.621E-02  0.621E-02  0.621E-02
  16.227  0.223E-01  0.744E-02  0.744E-02  0.744E-02
  16.237  0.272E-01  0.908E-02  0.908E-02  0.908E-02
  16.247  0.335E-01  0.112E-01  0.112E-01  0.112E-01
  16.257  0.411E-01  0.137E-01  0.137E-01  0.137E-01
  16.267  0.502E-01  0.167E-01  0.167E-01  0.167E-01
  16.277  0.609E-01  0.203E-01  0.203E-01  0.203E-01
  16.287  0.732E-01  0.244E-01  0.244E-01  0.244E-01
  16.297  0.872E-01  0.291E-01  0.291E-01  0.291E-01
  16.307  0.103E+00  0.342E-01  0.342E-01  0.342E-01
  16.317  0.120E+00  0.399E-01  0.399E-01  0.399E-01
  16.327  0.138E+00  0.461E-01  0.461E-01  0.461E-01
  16.337  0.158E+00  0.526E-01  0.526E-01  0.526E-01
  16.347  0.178E+00  0.594E-01  0.594E-01  0.594E-01
  16.357  0.199E+00  0.663E-01  0.663E-01  0.663E-01
  16.367  0.220E+00  0.733E-01  0.733E-01  0.733E-01
  16.377  0.240E+00  0.801E-01  0.801E-01  0.801E-01
  16.387  0.260E+00  0.867E-01  0.867E-01  0.867E-01
  16.397  0.278E+00  0.927E-01  0.927E-01  0.927E-01
  16.407  0.294E+00  0.981E-01  0.981E-01  0.981E-01
  16.417  0.308E+00  0.103E+00  0.103E+00  0.103E+00
  16.427  0.319E+00  0.106E+00  0.106E+00  0.106E+00
  16.437  0.327E+00  0.109E+00  0.109E+00  0.109E+00
  16.447  0.332E+00  0.111E+00  0.111E+00  0.111E+00
  16.457  0.333E+00  0.111E+00  0.111E+00  0.111E+00
  16.467  0.330E+00  0.110E+00  0.110E+00  0.110E+00
  16.477  0.324E+00  0.108E+00  0.108E+00  0.108E+00
  16.487  0.314E+00  0.105E+00  0.105E+00  0.105E+00
  16.497  0.302E+00  0.101E+00  0.101E+00  0.101E+00
  16.507  0.287E+00  0.956E-01  0.956E-01  0.956E-01
  16.517  0.269E+00  0.898E-01  0.898E-01  0.898E-01
  16.527  0.250E+00  0.835E-01  0.835E-01  0.835E-01
  16.537  0.230E+00  0.768E-01  0.768E-01  0.768E-01
  16.547  0.210E+00  0.699E-01  0.699E-01  0.699E-01
  16.557  0.189E+00  0.629E-01  0.629E-01  0.629E-01
  16.567  0.168E+00  0.560E-01  0.560E-01  0.560E-01
  16.577  0.148E+00  0.494E-01  0.494E-01  0.494E-01
  16.587  0.129E+00  0.431E-01  0.431E-01  0.431E-01
  16.597  0.112E+00  0.372E-01  0.372E-01  0.372E-01
  16.607  0.954E-01  0.318E-01  0.318E-01  0.318E-01
  16.617  0.809E-01  0.270E-01  0.270E-01  0.270E-01
  16.627  0.680E-01  0.227E-01  0.227E-01  0.227E-01
  16.637  0.567E-01  0.189E-01  0.189E-01  0.189E-01
  16.647  0.471E-01  0.157E-01  0.157E-01  0.157E-01
  16.657  0.391E-01  0.130E-01  0.130E-01  0.130E-01
  16.667  0.326E-01  0.109E-01  0.109E-01  0.109E-01
  16.677  0.275E-01  0.917E-02  0.917E-02  0.917E-02
  16.687  0.236E-01  0.788E-02  0.788E-02  0.788E-02
  16.697  0.209E-01  0.698E-02  0.698E-02  0.698E-02
  16.707  0.192E-01  0.641E-02  0.641E-02  0.641E-02
  16.717  0.185E-01  0.615E-02  0.615E-02  0.615E-02
  16.727  0.185E-01  0.616E-02  0.616E-02  0.616E-02
  16.737  0.192E-01  0.641E-02  0.641E-02  0.641E-02
  16.747  0.206E-01  0.685E-02  0.685E-02  0.685E-02
  16.757  0.224E-01  0.747E-02  0.747E-02  0.747E-02
  16.767  0.247E-01  0.822E-02  0.822E-02  0.822E-02
  16.777  0.272E-01  0.908E-02  0.908E-02  0.908E-02
  16.787  0.300E-01  0.100E-01  0.100E-01  0.100E-01
  16.797  0.330E-01  0.110E-01  0.110E-01  0.110E-01
  16.807  0.360E-01  0.120E-01  0.120E-01  0.120E-01
  16.817  0.389E-01  0.130E-01  0.130E-01  0.130E-01
  16.827  0.417E-01  0.139E-01  0.139E-01  0.139E-01
  16.837  0.442E-01  0.147E-01  0.147E-01  0.147E-01
  16.847  0.464E-01  0.155E-01  0.155E-01  0.155E-01
  16.857  0.482E-01  0.161E-01  0.161E-01  0.161E-01
  16.867  0.496E-01  0.165E-01  0.165E-01  0.165E-01
  16.877  0.505E-01  0.168E-01  0.168E-01  0.168E-01
  16.887  0.508E-01  0.169E-01  0.169E-01  0.169E-01
  16.897  0.506E-01  0.169E-01  0.169E-01  0.169E-01
  16.907  0.499E-01  0.166E-01  0.166E-01  0.166E-01
  16.917  0.486E-01  0.162E-01  0.162E-01  0.162E-01
  16.927  0.469E-01  0.156E-01  0.156E-01  0.156E-01
  16.937  0.447E-01  0.149E-01  0.149E-01  0.149E-01
  16.947  0.422E-01  0.141E-01  0.141E-01  0.141E-01
  16.957  0.394E-01  0.131E-01  0.131E-01  0.131E-01
  16.967  0.363E-01  0.121E-01  0.121E-01  0.121E-01
  16.977  0.332E-01  0.111E-01  0.111E-01  0.111E-01
  16.987  0.300E-01  0.100E-01  0.100E-01  0.100E-01
  16.997  0.268E-01  0.894E-02  0.894E-02  0.894E-02
  17.007  0.237E-01  0.791E-02  0.791E-02  0.791E-02
  17.017  0.208E-01  0.692E-02  0.692E-02  0.692E-02
  17.027  0.180E-01  0.599E-02  0.599E-02  0.599E-02
  17.037  0.154E-01  0.513E-02  0.513E-02  0.513E-02
  17.047  0.130E-01  0.434E-02  0.434E-02  0.434E-02
  17.057  0.109E-01  0.364E-02  0.364E-02  0.364E-02
  17.067  0.905E-02  0.302E-02  0.302E-02  0.302E-02
  17.077  0.742E-02  0.247E-02  0.247E-02  0.247E-02
  17.087  0.602E-02  0.201E-02  0.201E-02  0.201E-02
  17.097  0.484E-02  0.161E-02  0.161E-02  0.161E-02
  17.107  0.385E-02  0.128E-02  0.128E-02  0.128E-02
  17.117  0.303E-02  0.101E-02  0.101E-02  0.101E-02
  17.127  0.237E-02  0.789E-03  0.789E-03  0.789E-03
  17.137  0.183E-02  0.611E-03  0.611E-03  0.611E-03
  17.147  0.142E-02  0.472E-03  0.472E-03  0.472E-03
  17.157  0.109E-02  0.364E-03  0.364E-03  0.364E-03
  17.167  0.846E-03  0.282E-03  0.282E-03  0.282E-03
  17.177  0.666E-03  0.222E-03  0.222E-03  0.222E-03
  17.187  0.540E-03  0.180E-03  0.180E-03  0.180E-03
  17.197  0.456E-03  0.152E-03  0.152E-03  0.152E-03
  17.207  0.408E-03  0.136E-03  0.136E-03  0.136E-03
  17.217  0.388E-03  0.129E-03  0.129E-03  0.129E-03
  17.227  0.391E-03  0.130E-03  0.130E-03  0.130E-03
  17.237  0.412E-03  0.137E-03  0.137E-03  0.137E-03
  17.247  0.449E-03  0.150E-03  0.150E-03  0.150E-03
  17.257  0.498E-03  0.166E-03  0.166E-03  0.166E-03
  17.267  0.556E-03  0.185E-03  0.185E-03  0.185E-03
  17.277  0.622E-03  0.207E-03  0.207E-03  0.207E-03
  17.287  0.693E-03  0.231E-03  0.231E-03  0.231E-03
  17.297  0.766E-03  0.255E-03  0.255E-03  0.255E-03
  17.307  0.840E-03  0.280E-03  0.280E-03  0.280E-03
  17.317  0.913E-03  0.304E-03  0.304E-03  0.304E-03
  17.327  0.982E-03  0.327E-03  0.327E-03  0.327E-03
  17.337  0.105E-02  0.348E-03  0.348E-03  0.348E-03
  17.347  0.110E-02  0.367E-03  0.367E-03  0.367E-03
  17.357  0.115E-02  0.383E-03  0.383E-03  0.383E-03
  17.367  0.118E-02  0.395E-03  0.395E-03  0.395E-03
  17.377  0.121E-02  0.403E-03  0.403E-03  0.403E-03
  17.387  0.122E-02  0.407E-03  0.407E-03  0.407E-03
  17.397  0.122E-02  0.406E-03  0.406E-03  0.406E-03
  17.407  0.121E-02  0.402E-03  0.402E-03  0.402E-03
  17.417  0.118E-02  0.394E-03  0.394E-03  0.394E-03
  17.427  0.115E-02  0.382E-03  0.382E-03  0.382E-03
  17.437  0.110E-02  0.368E-03  0.368E-03  0.368E-03
  17.447  0.105E-02  0.351E-03  0.351E-03  0.351E-03
  17.457  0.100E-02  0.334E-03  0.334E-03  0.334E-03
  17.467  0.949E-03  0.316E-03  0.316E-03  0.316E-03
  17.477  0.901E-03  0.300E-03  0.300E-03  0.300E-03
  17.487  0.862E-03  0.287E-03  0.287E-03  0.287E-03
  17.497  0.838E-03  0.279E-03  0.279E-03  0.279E-03
  17.507  0.834E-03  0.278E-03  0.278E-03  0.278E-03
  17.517  0.859E-03  0.286E-03  0.286E-03  0.286E-03
  17.527  0.919E-03  0.306E-03  0.306E-03  0.306E-03
  17.537  0.103E-02  0.342E-03  0.342E-03  0.342E-03
  17.547  0.119E-02  0.397E-03  0.397E-03  0.397E-03
  17.557  0.142E-02  0.475E-03  0.475E-03  0.475E-03
  17.567  0.174E-02  0.581E-03  0.581E-03  0.581E-03
  17.577  0.216E-02  0.721E-03  0.721E-03  0.721E-03
  17.587  0.270E-02  0.901E-03  0.901E-03  0.901E-03
  17.597  0.338E-02  0.113E-02  0.113E-02  0.113E-02
  17.607  0.422E-02  0.141E-02  0.141E-02  0.141E-02
  17.617  0.524E-02  0.175E-02  0.175E-02  0.175E-02
  17.627  0.647E-02  0.216E-02  0.216E-02  0.216E-02
  17.637  0.792E-02  0.264E-02  0.264E-02  0.264E-02
  17.647  0.962E-02  0.321E-02  0.321E-02  0.321E-02
  17.657  0.116E-01  0.386E-02  0.386E-02  0.386E-02
  17.667  0.138E-01  0.461E-02  0.461E-02  0.461E-02
  17.677  0.164E-01  0.547E-02  0.547E-02  0.547E-02
  17.687  0.193E-01  0.643E-02  0.643E-02  0.643E-02
  17.697  0.225E-01  0.749E-02  0.749E-02  0.749E-02
  17.707  0.260E-01  0.867E-02  0.867E-02  0.867E-02
  17.717  0.299E-01  0.997E-02  0.997E-02  0.997E-02
  17.727  0.341E-01  0.114E-01  0.114E-01  0.114E-01
  17.737  0.387E-01  0.129E-01  0.129E-01  0.129E-01
  17.747  0.435E-01  0.145E-01  0.145E-01  0.145E-01
  17.757  0.487E-01  0.162E-01  0.162E-01  0.162E-01
  17.767  0.542E-01  0.181E-01  0.181E-01  0.181E-01
  17.777  0.601E-01  0.200E-01  0.200E-01  0.200E-01
  17.787  0.661E-01  0.220E-01  0.220E-01  0.220E-01
  17.797  0.725E-01  0.242E-01  0.242E-01  0.242E-01
  17.807  0.790E-01  0.263E-01  0.263E-01  0.263E-01
  17.817  0.858E-01  0.286E-01  0.286E-01  0.286E-01
  17.827  0.926E-01  0.309E-01  0.309E-01  0.309E-01
  17.837  0.995E-01  0.332E-01  0.332E-01  0.332E-01
  17.847  0.106E+00  0.354E-01  0.354E-01  0.354E-01
  17.857  0.113E+00  0.377E-01  0.377E-01  0.377E-01
  17.867  0.119E+00  0.398E-01  0.398E-01  0.398E-01
  17.877  0.125E+00  0.418E-01  0.418E-01  0.418E-01
  17.887  0.131E+00  0.436E-01  0.436E-01  0.436E-01
  17.897  0.136E+00  0.452E-01  0.452E-01  0.452E-01
  17.907  0.140E+00  0.466E-01  0.466E-01  0.466E-01
  17.917  0.143E+00  0.476E-01  0.476E-01  0.476E-01
  17.927  0.145E+00  0.483E-01  0.483E-01  0.483E-01
  17.937  0.146E+00  0.486E-01  0.486E-01  0.486E-01
  17.947  0.145E+00  0.485E-01  0.485E-01  0.485E-01
  17.957  0.144E+00  0.479E-01  0.479E-01  0.479E-01
  17.967  0.141E+00  0.470E-01  0.470E-01  0.470E-01
  17.977  0.137E+00  0.457E-01  0.457E-01  0.457E-01
  17.987  0.132E+00  0.440E-01  0.440E-01  0.440E-01
  17.997  0.126E+00  0.419E-01  0.419E-01  0.419E-01
  18.007  0.119E+00  0.396E-01  0.396E-01  0.396E-01
  18.017  0.111E+00  0.370E-01  0.370E-01  0.370E-01
  18.027  0.103E+00  0.343E-01  0.343E-01  0.343E-01
  18.037  0.942E-01  0.314E-01  0.314E-01  0.314E-01
  18.047  0.855E-01  0.285E-01  0.285E-01  0.285E-01
  18.057  0.768E-01  0.256E-01  0.256E-01  0.256E-01
  18.067  0.683E-01  0.228E-01  0.228E-01  0.228E-01
  18.077  0.601E-01  0.200E-01  0.200E-01  0.200E-01
  18.087  0.523E-01  0.174E-01  0.174E-01  0.174E-01
  18.097  0.450E-01  0.150E-01  0.150E-01  0.150E-01
  18.107  0.384E-01  0.128E-01  0.128E-01  0.128E-01
  18.117  0.324E-01  0.108E-01  0.108E-01  0.108E-01
  18.127  0.270E-01  0.901E-02  0.901E-02  0.901E-02
  18.137  0.223E-01  0.744E-02  0.744E-02  0.744E-02
  18.147  0.182E-01  0.608E-02  0.608E-02  0.608E-02
  18.157  0.147E-01  0.491E-02  0.491E-02  0.491E-02
  18.167  0.118E-01  0.393E-02  0.393E-02  0.393E-02
  18.177  0.932E-02  0.311E-02  0.311E-02  0.311E-02
  18.187  0.730E-02  0.243E-02  0.243E-02  0.243E-02
  18.197  0.565E-02  0.188E-02  0.188E-02  0.188E-02
  18.207  0.433E-02  0.144E-02  0.144E-02  0.144E-02
  18.217  0.328E-02  0.109E-02  0.109E-02  0.109E-02
  18.227  0.246E-02  0.820E-03  0.820E-03  0.820E-03
  18.237  0.183E-02  0.608E-03  0.608E-03  0.608E-03
  18.247  0.134E-02  0.446E-03  0.446E-03  0.446E-03
  18.257  0.972E-03  0.324E-03  0.324E-03  0.324E-03
  18.267  0.698E-03  0.233E-03  0.233E-03  0.233E-03
  18.277  0.496E-03  0.165E-03  0.165E-03  0.165E-03
  18.287  0.349E-03  0.116E-03  0.116E-03  0.116E-03
  18.297  0.242E-03  0.808E-04  0.808E-04  0.808E-04
  18.307  0.167E-03  0.556E-04  0.556E-04  0.556E-04
  18.317  0.113E-03  0.378E-04  0.378E-04  0.378E-04
  18.327  0.764E-04  0.255E-04  0.255E-04  0.255E-04
  18.337  0.509E-04  0.170E-04  0.170E-04  0.170E-04
  18.347  0.335E-04  0.112E-04  0.112E-04  0.112E-04
  18.357  0.218E-04  0.728E-05  0.728E-05  0.728E-05
  18.367  0.141E-04  0.469E-05  0.469E-05  0.469E-05
