# E (eV)  dos(E)    pdos(E)
  -5.983  0.106E-03  0.105E-03
  -5.973  0.164E-03  0.164E-03
  -5.963  0.253E-03  0.252E-03
  -5.953  0.385E-03  0.384E-03
  -5.943  0.581E-03  0.579E-03
  -5.933  0.866E-03  0.863E-03
  -5.923  0.128E-02  0.127E-02
  -5.913  0.187E-02  0.186E-02
  -5.903  0.270E-02  0.269E-02
  -5.893  0.385E-02  0.384E-02
  -5.883  0.545E-02  0.544E-02
  -5.873  0.764E-02  0.761E-02
  -5.863  0.106E-01  0.105E-01
  -5.853  0.145E-01  0.145E-01
  -5.843  0.197E-01  0.196E-01
  -5.833  0.264E-01  0.263E-01
  -5.823  0.351E-01  0.350E-01
  -5.813  0.462E-01  0.460E-01
  -5.803  0.601E-01  0.599E-01
  -5.793  0.774E-01  0.772E-01
  -5.783  0.987E-01  0.984E-01
  -5.773  0.124E+00  0.124E+00
  -5.763  0.155E+00  0.155E+00
  -5.753  0.192E+00  0.192E+00
  -5.743  0.235E+00  0.234E+00
  -5.733  0.285E+00  0.284E+00
  -5.723  0.341E+00  0.340E+00
  -5.713  0.405E+00  0.404E+00
  -5.703  0.476E+00  0.475E+00
  -5.693  0.554E+00  0.552E+00
  -5.683  0.638E+00  0.636E+00
  -5.673  0.728E+00  0.726E+00
  -5.663  0.823E+00  0.820E+00
  -5.653  0.921E+00  0.918E+00
  -5.643  0.102E+01  0.102E+01
  -5.633  0.112E+01  0.112E+01
  -5.623  0.122E+01  0.122E+01
  -5.613  0.132E+01  0.131E+01
  -5.603  0.141E+01  0.140E+01
  -5.593  0.149E+01  0.149E+01
  -5.583  0.157E+01  0.156E+01
  -5.573  0.163E+01  0.163E+01
  -5.563  0.169E+01  0.169E+01
  -5.553  0.173E+01  0.173E+01
  -5.543  0.177E+01  0.176E+01
  -5.533  0.179E+01  0.178E+01
  -5.523  0.180E+01  0.179E+01
  -5.513  0.179E+01  0.179E+01
  -5.503  0.178E+01  0.177E+01
  -5.493  0.175E+01  0.175E+01
  -5.483  0.172E+01  0.172E+01
  -5.473  0.168E+01  0.168E+01
  -5.463  0.163E+01  0.163E+01
  -5.453  0.158E+01  0.158E+01
  -5.443  0.153E+01  0.152E+01
  -5.433  0.147E+01  0.147E+01
  -5.423  0.142E+01  0.141E+01
  -5.413  0.136E+01  0.135E+01
  -5.403  0.130E+01  0.130E+01
  -5.393  0.125E+01  0.125E+01
  -5.383  0.121E+01  0.120E+01
  -5.373  0.116E+01  0.116E+01
  -5.363  0.112E+01  0.112E+01
  -5.353  0.109E+01  0.108E+01
  -5.343  0.106E+01  0.105E+01
  -5.333  0.103E+01  0.103E+01
  -5.323  0.101E+01  0.100E+01
  -5.313  0.987E+00  0.984E+00
  -5.303  0.970E+00  0.967E+00
  -5.293  0.954E+00  0.950E+00
  -5.283  0.938E+00  0.935E+00
  -5.273  0.922E+00  0.919E+00
  -5.263  0.905E+00  0.902E+00
  -5.253  0.886E+00  0.883E+00
  -5.243  0.865E+00  0.863E+00
  -5.233  0.843E+00  0.840E+00
  -5.223  0.818E+00  0.815E+00
  -5.213  0.792E+00  0.789E+00
  -5.203  0.765E+00  0.762E+00
  -5.193  0.737E+00  0.735E+00
  -5.183  0.710E+00  0.708E+00
  -5.173  0.685E+00  0.682E+00
  -5.163  0.662E+00  0.660E+00
  -5.153  0.643E+00  0.640E+00
  -5.143  0.627E+00  0.625E+00
  -5.133  0.617E+00  0.615E+00
  -5.123  0.612E+00  0.610E+00
  -5.113  0.612E+00  0.610E+00
  -5.103  0.617E+00  0.615E+00
  -5.093  0.626E+00  0.624E+00
  -5.083  0.640E+00  0.638E+00
  -5.073  0.656E+00  0.654E+00
  -5.063  0.674E+00  0.672E+00
  -5.053  0.693E+00  0.690E+00
  -5.043  0.710E+00  0.708E+00
  -5.033  0.726E+00  0.723E+00
  -5.023  0.738E+00  0.735E+00
  -5.013  0.746E+00  0.743E+00
  -5.003  0.749E+00  0.746E+00
  -4.993  0.746E+00  0.743E+00
  -4.983  0.737E+00  0.734E+00
  -4.973  0.721E+00  0.719E+00
  -4.963  0.700E+00  0.698E+00
  -4.953  0.674E+00  0.672E+00
  -4.943  0.644E+00  0.641E+00
  -4.933  0.610E+00  0.608E+00
  -4.923  0.574E+00  0.572E+00
  -4.913  0.537E+00  0.535E+00
  -4.903  0.500E+00  0.499E+00
  -4.893  0.465E+00  0.464E+00
  -4.883  0.433E+00  0.432E+00
  -4.873  0.406E+00  0.404E+00
  -4.863  0.383E+00  0.381E+00
  -4.853  0.366E+00  0.364E+00
  -4.843  0.355E+00  0.354E+00
  -4.833  0.351E+00  0.350E+00
  -4.823  0.354E+00  0.353E+00
  -4.813  0.364E+00  0.363E+00
  -4.803  0.381E+00  0.379E+00
  -4.793  0.403E+00  0.401E+00
  -4.783  0.430E+00  0.428E+00
  -4.773  0.461E+00  0.460E+00
  -4.763  0.496E+00  0.494E+00
  -4.753  0.532E+00  0.530E+00
  -4.743  0.568E+00  0.566E+00
  -4.733  0.603E+00  0.601E+00
  -4.723  0.636E+00  0.633E+00
  -4.713  0.665E+00  0.662E+00
  -4.703  0.689E+00  0.687E+00
  -4.693  0.708E+00  0.705E+00
  -4.683  0.719E+00  0.716E+00
  -4.673  0.724E+00  0.721E+00
  -4.663  0.721E+00  0.718E+00
  -4.653  0.711E+00  0.708E+00
  -4.643  0.693E+00  0.690E+00
  -4.633  0.669E+00  0.666E+00
  -4.623  0.639E+00  0.637E+00
  -4.613  0.604E+00  0.602E+00
  -4.603  0.565E+00  0.563E+00
  -4.593  0.524E+00  0.522E+00
  -4.583  0.481E+00  0.479E+00
  -4.573  0.437E+00  0.435E+00
  -4.563  0.394E+00  0.393E+00
  -4.553  0.353E+00  0.352E+00
  -4.543  0.315E+00  0.314E+00
  -4.533  0.281E+00  0.279E+00
  -4.523  0.250E+00  0.249E+00
  -4.513  0.225E+00  0.224E+00
  -4.503  0.205E+00  0.204E+00
  -4.493  0.191E+00  0.190E+00
  -4.483  0.183E+00  0.182E+00
  -4.473  0.181E+00  0.180E+00
  -4.463  0.185E+00  0.184E+00
  -4.453  0.195E+00  0.194E+00
  -4.443  0.211E+00  0.211E+00
  -4.433  0.233E+00  0.232E+00
  -4.423  0.260E+00  0.259E+00
  -4.413  0.292E+00  0.291E+00
  -4.403  0.328E+00  0.327E+00
  -4.393  0.367E+00  0.366E+00
  -4.383  0.409E+00  0.407E+00
  -4.373  0.452E+00  0.450E+00
  -4.363  0.496E+00  0.493E+00
  -4.353  0.538E+00  0.536E+00
  -4.343  0.579E+00  0.576E+00
  -4.333  0.616E+00  0.614E+00
  -4.323  0.650E+00  0.647E+00
  -4.313  0.677E+00  0.675E+00
  -4.303  0.699E+00  0.696E+00
  -4.293  0.714E+00  0.710E+00
  -4.283  0.721E+00  0.718E+00
  -4.273  0.720E+00  0.717E+00
  -4.263  0.712E+00  0.709E+00
  -4.253  0.696E+00  0.693E+00
  -4.243  0.673E+00  0.670E+00
  -4.233  0.644E+00  0.642E+00
  -4.223  0.610E+00  0.607E+00
  -4.213  0.571E+00  0.569E+00
  -4.203  0.529E+00  0.527E+00
  -4.193  0.485E+00  0.483E+00
  -4.183  0.440E+00  0.438E+00
  -4.173  0.395E+00  0.394E+00
  -4.163  0.351E+00  0.350E+00
  -4.153  0.309E+00  0.308E+00
  -4.143  0.269E+00  0.268E+00
  -4.133  0.233E+00  0.232E+00
  -4.123  0.200E+00  0.199E+00
  -4.113  0.171E+00  0.170E+00
  -4.103  0.146E+00  0.145E+00
  -4.093  0.125E+00  0.124E+00
  -4.083  0.108E+00  0.108E+00
  -4.073  0.961E-01  0.957E-01
  -4.063  0.882E-01  0.878E-01
  -4.053  0.845E-01  0.842E-01
  -4.043  0.851E-01  0.848E-01
  -4.033  0.900E-01  0.896E-01
  -4.023  0.991E-01  0.987E-01
  -4.013  0.113E+00  0.112E+00
  -4.003  0.130E+00  0.130E+00
  -3.993  0.152E+00  0.152E+00
  -3.983  0.178E+00  0.178E+00
  -3.973  0.209E+00  0.208E+00
  -3.963  0.243E+00  0.242E+00
  -3.953  0.280E+00  0.279E+00
  -3.943  0.321E+00  0.319E+00
  -3.933  0.363E+00  0.362E+00
  -3.923  0.408E+00  0.406E+00
  -3.913  0.453E+00  0.451E+00
  -3.903  0.498E+00  0.496E+00
  -3.893  0.541E+00  0.539E+00
  -3.883  0.583E+00  0.580E+00
  -3.873  0.620E+00  0.617E+00
  -3.863  0.653E+00  0.650E+00
  -3.853  0.680E+00  0.677E+00
  -3.843  0.701E+00  0.698E+00
  -3.833  0.715E+00  0.711E+00
  -3.823  0.721E+00  0.717E+00
  -3.813  0.719E+00  0.716E+00
  -3.803  0.710E+00  0.706E+00
  -3.793  0.693E+00  0.690E+00
  -3.783  0.669E+00  0.666E+00
  -3.773  0.640E+00  0.637E+00
  -3.763  0.605E+00  0.602E+00
  -3.753  0.565E+00  0.563E+00
  -3.743  0.523E+00  0.521E+00
  -3.733  0.479E+00  0.476E+00
  -3.723  0.433E+00  0.431E+00
  -3.713  0.388E+00  0.386E+00
  -3.703  0.344E+00  0.342E+00
  -3.693  0.301E+00  0.300E+00
  -3.683  0.261E+00  0.260E+00
  -3.673  0.224E+00  0.223E+00
  -3.663  0.191E+00  0.190E+00
  -3.653  0.160E+00  0.160E+00
  -3.643  0.134E+00  0.133E+00
  -3.633  0.110E+00  0.110E+00
  -3.623  0.908E-01  0.904E-01
  -3.613  0.744E-01  0.741E-01
  -3.603  0.612E-01  0.609E-01
  -3.593  0.510E-01  0.507E-01
  -3.583  0.435E-01  0.433E-01
  -3.573  0.387E-01  0.385E-01
  -3.563  0.365E-01  0.363E-01
  -3.553  0.367E-01  0.365E-01
  -3.543  0.395E-01  0.393E-01
  -3.533  0.448E-01  0.446E-01
  -3.523  0.528E-01  0.525E-01
  -3.513  0.636E-01  0.633E-01
  -3.503  0.774E-01  0.770E-01
  -3.493  0.944E-01  0.939E-01
  -3.483  0.115E+00  0.114E+00
  -3.473  0.139E+00  0.138E+00
  -3.463  0.166E+00  0.165E+00
  -3.453  0.197E+00  0.196E+00
  -3.443  0.231E+00  0.230E+00
  -3.433  0.269E+00  0.268E+00
  -3.423  0.310E+00  0.308E+00
  -3.413  0.352E+00  0.351E+00
  -3.403  0.397E+00  0.395E+00
  -3.393  0.442E+00  0.440E+00
  -3.383  0.488E+00  0.485E+00
  -3.373  0.532E+00  0.529E+00
  -3.363  0.573E+00  0.571E+00
  -3.353  0.612E+00  0.609E+00
  -3.343  0.646E+00  0.643E+00
  -3.333  0.675E+00  0.671E+00
  -3.323  0.697E+00  0.693E+00
  -3.313  0.712E+00  0.709E+00
  -3.303  0.720E+00  0.716E+00
  -3.293  0.720E+00  0.717E+00
  -3.283  0.713E+00  0.709E+00
  -3.273  0.697E+00  0.694E+00
  -3.263  0.675E+00  0.672E+00
  -3.253  0.647E+00  0.644E+00
  -3.243  0.613E+00  0.610E+00
  -3.233  0.575E+00  0.572E+00
  -3.223  0.533E+00  0.530E+00
  -3.213  0.489E+00  0.486E+00
  -3.203  0.444E+00  0.441E+00
  -3.193  0.398E+00  0.396E+00
  -3.183  0.354E+00  0.352E+00
  -3.173  0.311E+00  0.309E+00
  -3.163  0.270E+00  0.269E+00
  -3.153  0.232E+00  0.231E+00
  -3.143  0.197E+00  0.196E+00
  -3.133  0.166E+00  0.165E+00
  -3.123  0.138E+00  0.138E+00
  -3.113  0.114E+00  0.113E+00
  -3.103  0.929E-01  0.925E-01
  -3.093  0.750E-01  0.747E-01
  -3.083  0.601E-01  0.597E-01
  -3.073  0.477E-01  0.474E-01
  -3.063  0.377E-01  0.375E-01
  -3.053  0.298E-01  0.297E-01
  -3.043  0.238E-01  0.237E-01
  -3.033  0.194E-01  0.193E-01
  -3.023  0.165E-01  0.164E-01
  -3.013  0.150E-01  0.150E-01
  -3.003  0.149E-01  0.148E-01
  -2.993  0.160E-01  0.159E-01
  -2.983  0.185E-01  0.184E-01
  -2.973  0.225E-01  0.223E-01
  -2.963  0.280E-01  0.279E-01
  -2.953  0.354E-01  0.352E-01
  -2.943  0.448E-01  0.445E-01
  -2.933  0.565E-01  0.562E-01
  -2.923  0.708E-01  0.704E-01
  -2.913  0.879E-01  0.874E-01
  -2.903  0.108E+00  0.107E+00
  -2.893  0.131E+00  0.131E+00
  -2.883  0.158E+00  0.158E+00
  -2.873  0.189E+00  0.188E+00
  -2.863  0.223E+00  0.221E+00
  -2.853  0.260E+00  0.258E+00
  -2.843  0.300E+00  0.298E+00
  -2.833  0.342E+00  0.340E+00
  -2.823  0.386E+00  0.384E+00
  -2.813  0.431E+00  0.429E+00
  -2.803  0.477E+00  0.474E+00
  -2.793  0.521E+00  0.518E+00
  -2.783  0.564E+00  0.561E+00
  -2.773  0.603E+00  0.600E+00
  -2.763  0.638E+00  0.635E+00
  -2.753  0.668E+00  0.665E+00
  -2.743  0.692E+00  0.688E+00
  -2.733  0.709E+00  0.705E+00
  -2.723  0.719E+00  0.715E+00
  -2.713  0.721E+00  0.717E+00
  -2.703  0.715E+00  0.711E+00
  -2.693  0.702E+00  0.698E+00
  -2.683  0.681E+00  0.678E+00
  -2.673  0.654E+00  0.651E+00
  -2.663  0.622E+00  0.618E+00
  -2.653  0.584E+00  0.581E+00
  -2.643  0.543E+00  0.540E+00
  -2.633  0.499E+00  0.497E+00
  -2.623  0.454E+00  0.452E+00
  -2.613  0.409E+00  0.407E+00
  -2.603  0.364E+00  0.362E+00
  -2.593  0.321E+00  0.319E+00
  -2.583  0.279E+00  0.278E+00
  -2.573  0.241E+00  0.240E+00
  -2.563  0.205E+00  0.204E+00
  -2.553  0.173E+00  0.172E+00
  -2.543  0.145E+00  0.144E+00
  -2.533  0.119E+00  0.119E+00
  -2.523  0.975E-01  0.970E-01
  -2.513  0.788E-01  0.784E-01
  -2.503  0.630E-01  0.626E-01
  -2.493  0.498E-01  0.496E-01
  -2.483  0.390E-01  0.388E-01
  -2.473  0.303E-01  0.301E-01
  -2.463  0.233E-01  0.232E-01
  -2.453  0.178E-01  0.177E-01
  -2.443  0.136E-01  0.135E-01
  -2.433  0.105E-01  0.104E-01
  -2.423  0.824E-02  0.819E-02
  -2.413  0.679E-02  0.675E-02
  -2.403  0.604E-02  0.600E-02
  -2.393  0.594E-02  0.590E-02
  -2.383  0.648E-02  0.644E-02
  -2.373  0.770E-02  0.765E-02
  -2.363  0.966E-02  0.961E-02
  -2.353  0.125E-01  0.124E-01
  -2.343  0.163E-01  0.162E-01
  -2.333  0.214E-01  0.213E-01
  -2.323  0.279E-01  0.277E-01
  -2.313  0.360E-01  0.358E-01
  -2.303  0.462E-01  0.459E-01
  -2.293  0.585E-01  0.582E-01
  -2.283  0.735E-01  0.730E-01
  -2.273  0.912E-01  0.907E-01
  -2.263  0.112E+00  0.111E+00
  -2.253  0.136E+00  0.135E+00
  -2.243  0.164E+00  0.163E+00
  -2.233  0.195E+00  0.194E+00
  -2.223  0.229E+00  0.228E+00
  -2.213  0.267E+00  0.265E+00
  -2.203  0.307E+00  0.306E+00
  -2.193  0.350E+00  0.348E+00
  -2.183  0.395E+00  0.392E+00
  -2.173  0.440E+00  0.437E+00
  -2.163  0.485E+00  0.482E+00
  -2.153  0.529E+00  0.526E+00
  -2.143  0.571E+00  0.568E+00
  -2.133  0.610E+00  0.607E+00
  -2.123  0.644E+00  0.641E+00
  -2.113  0.673E+00  0.669E+00
  -2.103  0.696E+00  0.692E+00
  -2.093  0.712E+00  0.708E+00
  -2.083  0.720E+00  0.716E+00
  -2.073  0.720E+00  0.716E+00
  -2.063  0.713E+00  0.709E+00
  -2.053  0.698E+00  0.694E+00
  -2.043  0.677E+00  0.673E+00
  -2.033  0.648E+00  0.645E+00
  -2.023  0.615E+00  0.611E+00
  -2.013  0.577E+00  0.573E+00
  -2.003  0.535E+00  0.532E+00
  -1.993  0.491E+00  0.488E+00
  -1.983  0.446E+00  0.443E+00
  -1.973  0.400E+00  0.398E+00
  -1.963  0.356E+00  0.354E+00
  -1.953  0.313E+00  0.311E+00
  -1.943  0.272E+00  0.270E+00
  -1.933  0.234E+00  0.233E+00
  -1.923  0.199E+00  0.198E+00
  -1.913  0.168E+00  0.167E+00
  -1.903  0.140E+00  0.139E+00
  -1.893  0.115E+00  0.114E+00
  -1.883  0.937E-01  0.932E-01
  -1.873  0.756E-01  0.751E-01
  -1.863  0.603E-01  0.599E-01
  -1.853  0.476E-01  0.473E-01
  -1.843  0.371E-01  0.369E-01
  -1.833  0.287E-01  0.285E-01
  -1.823  0.219E-01  0.218E-01
  -1.813  0.166E-01  0.165E-01
  -1.803  0.124E-01  0.124E-01
  -1.793  0.925E-02  0.919E-02
  -1.783  0.685E-02  0.681E-02
  -1.773  0.509E-02  0.506E-02
  -1.763  0.384E-02  0.382E-02
  -1.753  0.302E-02  0.300E-02
  -1.743  0.255E-02  0.253E-02
  -1.733  0.240E-02  0.238E-02
  -1.723  0.256E-02  0.254E-02
  -1.713  0.304E-02  0.302E-02
  -1.703  0.388E-02  0.386E-02
  -1.693  0.514E-02  0.511E-02
  -1.683  0.693E-02  0.689E-02
  -1.673  0.935E-02  0.929E-02
  -1.663  0.126E-01  0.125E-01
  -1.653  0.168E-01  0.167E-01
  -1.643  0.221E-01  0.220E-01
  -1.633  0.289E-01  0.288E-01
  -1.623  0.375E-01  0.372E-01
  -1.613  0.480E-01  0.477E-01
  -1.603  0.608E-01  0.604E-01
  -1.593  0.762E-01  0.757E-01
  -1.583  0.944E-01  0.939E-01
  -1.573  0.116E+00  0.115E+00
  -1.563  0.141E+00  0.140E+00
  -1.553  0.169E+00  0.168E+00
  -1.543  0.200E+00  0.199E+00
  -1.533  0.235E+00  0.234E+00
  -1.523  0.273E+00  0.272E+00
  -1.513  0.314E+00  0.312E+00
  -1.503  0.357E+00  0.355E+00
  -1.493  0.402E+00  0.400E+00
  -1.483  0.447E+00  0.445E+00
  -1.473  0.493E+00  0.490E+00
  -1.463  0.537E+00  0.533E+00
  -1.453  0.578E+00  0.574E+00
  -1.443  0.616E+00  0.612E+00
  -1.433  0.650E+00  0.646E+00
  -1.423  0.678E+00  0.673E+00
  -1.413  0.699E+00  0.695E+00
  -1.403  0.714E+00  0.709E+00
  -1.393  0.721E+00  0.716E+00
  -1.383  0.720E+00  0.715E+00
  -1.373  0.711E+00  0.707E+00
  -1.363  0.695E+00  0.691E+00
  -1.353  0.672E+00  0.668E+00
  -1.343  0.643E+00  0.639E+00
  -1.333  0.609E+00  0.605E+00
  -1.323  0.570E+00  0.566E+00
  -1.313  0.528E+00  0.525E+00
  -1.303  0.484E+00  0.481E+00
  -1.293  0.438E+00  0.436E+00
  -1.283  0.393E+00  0.391E+00
  -1.273  0.349E+00  0.346E+00
  -1.263  0.306E+00  0.304E+00
  -1.253  0.265E+00  0.264E+00
  -1.243  0.228E+00  0.227E+00
  -1.233  0.194E+00  0.192E+00
  -1.223  0.163E+00  0.162E+00
  -1.213  0.135E+00  0.134E+00
  -1.203  0.111E+00  0.111E+00
  -1.193  0.905E-01  0.899E-01
  -1.183  0.728E-01  0.724E-01
  -1.173  0.580E-01  0.576E-01
  -1.163  0.457E-01  0.454E-01
  -1.153  0.356E-01  0.354E-01
  -1.143  0.274E-01  0.273E-01
  -1.133  0.209E-01  0.208E-01
  -1.123  0.158E-01  0.157E-01
  -1.113  0.118E-01  0.117E-01
  -1.103  0.870E-02  0.865E-02
  -1.093  0.637E-02  0.633E-02
  -1.083  0.462E-02  0.459E-02
  -1.073  0.334E-02  0.332E-02
  -1.063  0.241E-02  0.240E-02
  -1.053  0.177E-02  0.176E-02
  -1.043  0.135E-02  0.134E-02
  -1.033  0.111E-02  0.111E-02
  -1.023  0.104E-02  0.103E-02
  -1.013  0.112E-02  0.111E-02
  -1.003  0.135E-02  0.134E-02
  -0.993  0.177E-02  0.176E-02
  -0.983  0.242E-02  0.240E-02
  -0.973  0.334E-02  0.332E-02
  -0.963  0.463E-02  0.460E-02
  -0.953  0.638E-02  0.634E-02
  -0.943  0.872E-02  0.866E-02
  -0.933  0.118E-01  0.117E-01
  -0.923  0.158E-01  0.157E-01
  -0.913  0.209E-01  0.208E-01
  -0.903  0.275E-01  0.273E-01
  -0.893  0.356E-01  0.354E-01
  -0.883  0.457E-01  0.454E-01
  -0.873  0.581E-01  0.577E-01
  -0.863  0.729E-01  0.724E-01
  -0.853  0.906E-01  0.900E-01
  -0.843  0.111E+00  0.111E+00
  -0.833  0.135E+00  0.135E+00
  -0.823  0.163E+00  0.162E+00
  -0.813  0.194E+00  0.193E+00
  -0.803  0.228E+00  0.227E+00
  -0.793  0.266E+00  0.264E+00
  -0.783  0.306E+00  0.304E+00
  -0.773  0.349E+00  0.347E+00
  -0.763  0.393E+00  0.391E+00
  -0.753  0.439E+00  0.436E+00
  -0.743  0.484E+00  0.481E+00
  -0.733  0.528E+00  0.525E+00
  -0.723  0.570E+00  0.566E+00
  -0.713  0.609E+00  0.605E+00
  -0.703  0.643E+00  0.639E+00
  -0.693  0.673E+00  0.668E+00
  -0.683  0.695E+00  0.691E+00
  -0.673  0.711E+00  0.707E+00
  -0.663  0.720E+00  0.715E+00
  -0.653  0.721E+00  0.716E+00
  -0.643  0.714E+00  0.709E+00
  -0.633  0.699E+00  0.694E+00
  -0.623  0.677E+00  0.673E+00
  -0.613  0.649E+00  0.645E+00
  -0.603  0.616E+00  0.612E+00
  -0.593  0.578E+00  0.574E+00
  -0.583  0.536E+00  0.533E+00
  -0.573  0.492E+00  0.489E+00
  -0.563  0.447E+00  0.444E+00
  -0.553  0.402E+00  0.399E+00
  -0.543  0.357E+00  0.355E+00
  -0.533  0.314E+00  0.312E+00
  -0.523  0.273E+00  0.271E+00
  -0.513  0.235E+00  0.234E+00
  -0.503  0.200E+00  0.199E+00
  -0.493  0.169E+00  0.167E+00
  -0.483  0.140E+00  0.139E+00
  -0.473  0.116E+00  0.115E+00
  -0.463  0.943E-01  0.937E-01
  -0.453  0.761E-01  0.756E-01
  -0.443  0.607E-01  0.603E-01
  -0.433  0.479E-01  0.476E-01
  -0.423  0.374E-01  0.372E-01
  -0.413  0.289E-01  0.287E-01
  -0.403  0.221E-01  0.219E-01
  -0.393  0.167E-01  0.166E-01
  -0.383  0.125E-01  0.124E-01
  -0.373  0.923E-02  0.917E-02
  -0.363  0.676E-02  0.671E-02
  -0.353  0.490E-02  0.486E-02
  -0.343  0.351E-02  0.349E-02
  -0.333  0.250E-02  0.248E-02
  -0.323  0.177E-02  0.175E-02
  -0.313  0.125E-02  0.124E-02
  -0.303  0.896E-03  0.890E-03
  -0.293  0.669E-03  0.664E-03
  -0.283  0.542E-03  0.539E-03
  -0.273  0.502E-03  0.499E-03
  -0.263  0.544E-03  0.541E-03
  -0.253  0.673E-03  0.668E-03
  -0.243  0.903E-03  0.897E-03
  -0.233  0.126E-02  0.125E-02
  -0.223  0.178E-02  0.177E-02
  -0.213  0.252E-02  0.250E-02
  -0.203  0.354E-02  0.352E-02
  -0.193  0.494E-02  0.490E-02
  -0.183  0.681E-02  0.676E-02
  -0.173  0.930E-02  0.924E-02
  -0.163  0.126E-01  0.125E-01
  -0.153  0.168E-01  0.167E-01
  -0.143  0.222E-01  0.221E-01
  -0.133  0.291E-01  0.289E-01
  -0.123  0.376E-01  0.374E-01
  -0.113  0.482E-01  0.479E-01
  -0.103  0.611E-01  0.606E-01
  -0.093  0.765E-01  0.760E-01
  -0.083  0.948E-01  0.942E-01
  -0.073  0.116E+00  0.115E+00
  -0.063  0.141E+00  0.140E+00
  -0.053  0.169E+00  0.168E+00
  -0.043  0.201E+00  0.200E+00
  -0.033  0.236E+00  0.234E+00
  -0.023  0.274E+00  0.272E+00
  -0.013  0.315E+00  0.313E+00
  -0.003  0.358E+00  0.356E+00
   0.007  0.403E+00  0.400E+00
   0.017  0.448E+00  0.445E+00
   0.027  0.494E+00  0.490E+00
   0.037  0.537E+00  0.534E+00
   0.047  0.579E+00  0.575E+00
   0.057  0.617E+00  0.612E+00
   0.067  0.650E+00  0.646E+00
   0.077  0.678E+00  0.673E+00
   0.087  0.699E+00  0.695E+00
   0.097  0.714E+00  0.709E+00
   0.107  0.721E+00  0.716E+00
   0.117  0.720E+00  0.715E+00
   0.127  0.711E+00  0.706E+00
   0.137  0.695E+00  0.690E+00
   0.147  0.672E+00  0.667E+00
   0.157  0.643E+00  0.638E+00
   0.167  0.608E+00  0.604E+00
   0.177  0.569E+00  0.565E+00
   0.187  0.527E+00  0.523E+00
   0.197  0.483E+00  0.479E+00
   0.207  0.437E+00  0.434E+00
   0.217  0.392E+00  0.389E+00
   0.227  0.348E+00  0.345E+00
   0.237  0.305E+00  0.303E+00
   0.247  0.265E+00  0.263E+00
   0.257  0.227E+00  0.226E+00
   0.267  0.193E+00  0.192E+00
   0.277  0.162E+00  0.161E+00
   0.287  0.135E+00  0.134E+00
   0.297  0.111E+00  0.110E+00
   0.307  0.901E-01  0.895E-01
   0.317  0.725E-01  0.720E-01
   0.327  0.577E-01  0.573E-01
   0.337  0.455E-01  0.451E-01
   0.347  0.354E-01  0.352E-01
   0.357  0.273E-01  0.271E-01
   0.367  0.208E-01  0.207E-01
   0.377  0.157E-01  0.156E-01
   0.387  0.117E-01  0.116E-01
   0.397  0.864E-02  0.858E-02
   0.407  0.631E-02  0.626E-02
   0.417  0.455E-02  0.452E-02
   0.427  0.326E-02  0.323E-02
   0.437  0.230E-02  0.229E-02
   0.447  0.162E-02  0.160E-02
   0.457  0.113E-02  0.112E-02
   0.467  0.783E-03  0.777E-03
   0.477  0.550E-03  0.546E-03
   0.487  0.400E-03  0.397E-03
   0.497  0.315E-03  0.313E-03
   0.507  0.284E-03  0.282E-03
   0.517  0.302E-03  0.300E-03
   0.527  0.373E-03  0.370E-03
   0.537  0.505E-03  0.501E-03
   0.547  0.714E-03  0.708E-03
   0.557  0.103E-02  0.102E-02
   0.567  0.147E-02  0.146E-02
   0.577  0.211E-02  0.209E-02
   0.587  0.298E-02  0.296E-02
   0.597  0.418E-02  0.415E-02
   0.607  0.581E-02  0.576E-02
   0.617  0.797E-02  0.791E-02
   0.627  0.108E-01  0.107E-01
   0.637  0.146E-01  0.144E-01
   0.647  0.194E-01  0.192E-01
   0.657  0.255E-01  0.253E-01
   0.667  0.332E-01  0.329E-01
   0.677  0.427E-01  0.423E-01
   0.687  0.543E-01  0.539E-01
   0.697  0.685E-01  0.679E-01
   0.707  0.853E-01  0.847E-01
   0.717  0.105E+00  0.104E+00
   0.727  0.128E+00  0.127E+00
   0.737  0.155E+00  0.154E+00
   0.747  0.185E+00  0.183E+00
   0.757  0.218E+00  0.216E+00
   0.767  0.255E+00  0.253E+00
   0.777  0.294E+00  0.292E+00
   0.787  0.337E+00  0.334E+00
   0.797  0.381E+00  0.378E+00
   0.807  0.426E+00  0.422E+00
   0.817  0.471E+00  0.467E+00
   0.827  0.516E+00  0.512E+00
   0.837  0.559E+00  0.554E+00
   0.847  0.598E+00  0.594E+00
   0.857  0.634E+00  0.629E+00
   0.867  0.665E+00  0.660E+00
   0.877  0.690E+00  0.684E+00
   0.887  0.708E+00  0.702E+00
   0.897  0.718E+00  0.712E+00
   0.907  0.721E+00  0.715E+00
   0.917  0.716E+00  0.711E+00
   0.927  0.704E+00  0.698E+00
   0.937  0.684E+00  0.679E+00
   0.947  0.658E+00  0.653E+00
   0.957  0.626E+00  0.621E+00
   0.967  0.589E+00  0.584E+00
   0.977  0.548E+00  0.544E+00
   0.987  0.505E+00  0.501E+00
   0.997  0.460E+00  0.456E+00
   1.007  0.415E+00  0.411E+00
   1.017  0.370E+00  0.367E+00
   1.027  0.326E+00  0.323E+00
   1.037  0.284E+00  0.282E+00
   1.047  0.246E+00  0.244E+00
   1.057  0.210E+00  0.208E+00
   1.067  0.177E+00  0.176E+00
   1.077  0.148E+00  0.147E+00
   1.087  0.122E+00  0.121E+00
   1.097  0.100E+00  0.992E-01
   1.107  0.809E-01  0.803E-01
   1.117  0.648E-01  0.642E-01
   1.127  0.513E-01  0.509E-01
   1.137  0.401E-01  0.398E-01
   1.147  0.311E-01  0.309E-01
   1.157  0.238E-01  0.236E-01
   1.167  0.181E-01  0.179E-01
   1.177  0.136E-01  0.134E-01
   1.187  0.101E-01  0.998E-02
   1.197  0.738E-02  0.732E-02
   1.207  0.536E-02  0.532E-02
   1.217  0.385E-02  0.382E-02
   1.227  0.274E-02  0.272E-02
   1.237  0.193E-02  0.191E-02
   1.247  0.134E-02  0.133E-02
   1.257  0.927E-03  0.920E-03
   1.267  0.638E-03  0.633E-03
   1.277  0.441E-03  0.437E-03
   1.287  0.311E-03  0.309E-03
   1.297  0.234E-03  0.232E-03
   1.307  0.197E-03  0.195E-03
   1.317  0.196E-03  0.195E-03
   1.327  0.231E-03  0.229E-03
   1.337  0.308E-03  0.305E-03
   1.347  0.434E-03  0.430E-03
   1.357  0.629E-03  0.623E-03
   1.367  0.914E-03  0.905E-03
   1.377  0.132E-02  0.131E-02
   1.387  0.190E-02  0.188E-02
   1.397  0.270E-02  0.268E-02
   1.407  0.380E-02  0.377E-02
   1.417  0.529E-02  0.524E-02
   1.427  0.729E-02  0.722E-02
   1.437  0.994E-02  0.985E-02
   1.447  0.134E-01  0.133E-01
   1.457  0.179E-01  0.177E-01
   1.467  0.236E-01  0.234E-01
   1.477  0.308E-01  0.305E-01
   1.487  0.398E-01  0.394E-01
   1.497  0.508E-01  0.503E-01
   1.507  0.642E-01  0.636E-01
   1.517  0.802E-01  0.795E-01
   1.527  0.992E-01  0.983E-01
   1.537  0.121E+00  0.120E+00
   1.547  0.147E+00  0.146E+00
   1.557  0.176E+00  0.174E+00
   1.567  0.208E+00  0.206E+00
   1.577  0.244E+00  0.242E+00
   1.587  0.283E+00  0.280E+00
   1.597  0.324E+00  0.321E+00
   1.607  0.368E+00  0.364E+00
   1.617  0.413E+00  0.409E+00
   1.627  0.458E+00  0.454E+00
   1.637  0.503E+00  0.498E+00
   1.647  0.547E+00  0.542E+00
   1.657  0.587E+00  0.582E+00
   1.667  0.624E+00  0.619E+00
   1.677  0.657E+00  0.651E+00
   1.687  0.683E+00  0.677E+00
   1.697  0.703E+00  0.697E+00
   1.707  0.716E+00  0.709E+00
   1.717  0.721E+00  0.714E+00
   1.727  0.718E+00  0.712E+00
   1.737  0.708E+00  0.702E+00
   1.747  0.690E+00  0.684E+00
   1.757  0.666E+00  0.660E+00
   1.767  0.636E+00  0.630E+00
   1.777  0.600E+00  0.594E+00
   1.787  0.560E+00  0.555E+00
   1.797  0.518E+00  0.513E+00
   1.807  0.473E+00  0.469E+00
   1.817  0.428E+00  0.424E+00
   1.827  0.382E+00  0.379E+00
   1.837  0.338E+00  0.335E+00
   1.847  0.296E+00  0.293E+00
   1.857  0.256E+00  0.254E+00
   1.867  0.220E+00  0.218E+00
   1.877  0.186E+00  0.184E+00
   1.887  0.156E+00  0.154E+00
   1.897  0.129E+00  0.128E+00
   1.907  0.106E+00  0.105E+00
   1.917  0.861E-01  0.853E-01
   1.927  0.691E-01  0.684E-01
   1.937  0.549E-01  0.543E-01
   1.947  0.431E-01  0.427E-01
   1.957  0.335E-01  0.332E-01
   1.967  0.257E-01  0.255E-01
   1.977  0.196E-01  0.194E-01
   1.987  0.147E-01  0.146E-01
   1.997  0.110E-01  0.109E-01
   2.007  0.807E-02  0.800E-02
   2.017  0.588E-02  0.583E-02
   2.027  0.424E-02  0.420E-02
   2.037  0.302E-02  0.299E-02
   2.047  0.213E-02  0.211E-02
   2.057  0.149E-02  0.147E-02
   2.067  0.103E-02  0.102E-02
   2.077  0.706E-03  0.700E-03
   2.087  0.483E-03  0.479E-03
   2.097  0.333E-03  0.330E-03
   2.107  0.237E-03  0.235E-03
   2.117  0.182E-03  0.180E-03
   2.127  0.160E-03  0.158E-03
   2.137  0.167E-03  0.166E-03
   2.147  0.206E-03  0.204E-03
   2.157  0.282E-03  0.279E-03
   2.167  0.405E-03  0.400E-03
   2.177  0.590E-03  0.583E-03
   2.187  0.861E-03  0.852E-03
   2.197  0.125E-02  0.124E-02
   2.207  0.180E-02  0.178E-02
   2.217  0.256E-02  0.253E-02
   2.227  0.361E-02  0.357E-02
   2.237  0.504E-02  0.498E-02
   2.247  0.696E-02  0.688E-02
   2.257  0.950E-02  0.939E-02
   2.267  0.128E-01  0.127E-01
   2.277  0.171E-01  0.169E-01
   2.287  0.226E-01  0.224E-01
   2.297  0.296E-01  0.293E-01
   2.307  0.383E-01  0.378E-01
   2.317  0.490E-01  0.484E-01
   2.327  0.620E-01  0.613E-01
   2.337  0.776E-01  0.767E-01
   2.347  0.962E-01  0.951E-01
   2.357  0.118E+00  0.116E+00
   2.367  0.143E+00  0.141E+00
   2.377  0.171E+00  0.169E+00
   2.387  0.203E+00  0.201E+00
   2.397  0.238E+00  0.236E+00
   2.407  0.277E+00  0.274E+00
   2.417  0.318E+00  0.314E+00
   2.427  0.361E+00  0.357E+00
   2.437  0.406E+00  0.401E+00
   2.447  0.451E+00  0.446E+00
   2.457  0.497E+00  0.491E+00
   2.467  0.540E+00  0.534E+00
   2.477  0.582E+00  0.575E+00
   2.487  0.619E+00  0.612E+00
   2.497  0.652E+00  0.645E+00
   2.507  0.680E+00  0.672E+00
   2.517  0.701E+00  0.693E+00
   2.527  0.714E+00  0.706E+00
   2.537  0.721E+00  0.712E+00
   2.547  0.719E+00  0.711E+00
   2.557  0.710E+00  0.702E+00
   2.567  0.694E+00  0.686E+00
   2.577  0.670E+00  0.662E+00
   2.587  0.640E+00  0.633E+00
   2.597  0.606E+00  0.599E+00
   2.607  0.566E+00  0.560E+00
   2.617  0.524E+00  0.518E+00
   2.627  0.480E+00  0.474E+00
   2.637  0.434E+00  0.429E+00
   2.647  0.389E+00  0.385E+00
   2.657  0.345E+00  0.341E+00
   2.667  0.302E+00  0.299E+00
   2.677  0.262E+00  0.259E+00
   2.687  0.225E+00  0.222E+00
   2.697  0.191E+00  0.189E+00
   2.707  0.160E+00  0.158E+00
   2.717  0.133E+00  0.132E+00
   2.727  0.109E+00  0.108E+00
   2.737  0.888E-01  0.878E-01
   2.747  0.714E-01  0.706E-01
   2.757  0.568E-01  0.562E-01
   2.767  0.447E-01  0.442E-01
   2.777  0.348E-01  0.344E-01
   2.787  0.268E-01  0.265E-01
   2.797  0.204E-01  0.202E-01
   2.807  0.154E-01  0.152E-01
   2.817  0.115E-01  0.113E-01
   2.827  0.846E-02  0.836E-02
   2.837  0.617E-02  0.610E-02
   2.847  0.445E-02  0.440E-02
   2.857  0.318E-02  0.314E-02
   2.867  0.225E-02  0.222E-02
   2.877  0.157E-02  0.155E-02
   2.887  0.109E-02  0.108E-02
   2.897  0.748E-03  0.739E-03
   2.907  0.512E-03  0.506E-03
   2.917  0.352E-03  0.348E-03
   2.927  0.249E-03  0.246E-03
   2.937  0.189E-03  0.186E-03
   2.947  0.162E-03  0.160E-03
   2.957  0.166E-03  0.164E-03
   2.967  0.201E-03  0.199E-03
   2.977  0.273E-03  0.269E-03
   2.987  0.389E-03  0.384E-03
   2.997  0.567E-03  0.559E-03
   3.007  0.828E-03  0.816E-03
   3.017  0.120E-02  0.119E-02
   3.027  0.173E-02  0.171E-02
   3.037  0.247E-02  0.243E-02
   3.047  0.349E-02  0.344E-02
   3.057  0.487E-02  0.480E-02
   3.067  0.673E-02  0.663E-02
   3.077  0.920E-02  0.907E-02
   3.087  0.124E-01  0.123E-01
   3.097  0.166E-01  0.164E-01
   3.107  0.220E-01  0.217E-01
   3.117  0.289E-01  0.284E-01
   3.127  0.374E-01  0.368E-01
   3.137  0.479E-01  0.472E-01
   3.147  0.608E-01  0.599E-01
   3.157  0.763E-01  0.752E-01
   3.167  0.947E-01  0.933E-01
   3.177  0.116E+00  0.115E+00
   3.187  0.141E+00  0.139E+00
   3.197  0.170E+00  0.168E+00
   3.207  0.203E+00  0.200E+00
   3.217  0.239E+00  0.236E+00
   3.227  0.279E+00  0.275E+00
   3.237  0.322E+00  0.318E+00
   3.247  0.369E+00  0.364E+00
   3.257  0.419E+00  0.413E+00
   3.267  0.470E+00  0.464E+00
   3.277  0.524E+00  0.517E+00
   3.287  0.579E+00  0.571E+00
   3.297  0.635E+00  0.626E+00
   3.307  0.691E+00  0.681E+00
   3.317  0.747E+00  0.737E+00
   3.327  0.803E+00  0.792E+00
   3.337  0.859E+00  0.848E+00
   3.347  0.915E+00  0.904E+00
   3.357  0.973E+00  0.961E+00
   3.367  0.103E+01  0.102E+01
   3.377  0.109E+01  0.108E+01
   3.387  0.116E+01  0.115E+01
   3.397  0.123E+01  0.121E+01
   3.407  0.130E+01  0.129E+01
   3.417  0.138E+01  0.137E+01
   3.427  0.147E+01  0.146E+01
   3.437  0.157E+01  0.156E+01
   3.447  0.167E+01  0.166E+01
   3.457  0.179E+01  0.177E+01
   3.467  0.190E+01  0.189E+01
   3.477  0.203E+01  0.202E+01
   3.487  0.216E+01  0.215E+01
   3.497  0.229E+01  0.228E+01
   3.507  0.242E+01  0.240E+01
   3.517  0.254E+01  0.253E+01
   3.527  0.266E+01  0.265E+01
   3.537  0.278E+01  0.276E+01
   3.547  0.288E+01  0.287E+01
   3.557  0.297E+01  0.296E+01
   3.567  0.305E+01  0.303E+01
   3.577  0.310E+01  0.309E+01
   3.587  0.315E+01  0.313E+01
   3.597  0.317E+01  0.316E+01
   3.607  0.318E+01  0.317E+01
   3.617  0.317E+01  0.316E+01
   3.627  0.315E+01  0.313E+01
   3.637  0.311E+01  0.310E+01
   3.647  0.306E+01  0.305E+01
   3.657  0.300E+01  0.299E+01
   3.667  0.293E+01  0.292E+01
   3.677  0.286E+01  0.285E+01
   3.687  0.278E+01  0.277E+01
   3.697  0.270E+01  0.269E+01
   3.707  0.263E+01  0.262E+01
   3.717  0.255E+01  0.254E+01
   3.727  0.248E+01  0.247E+01
   3.737  0.241E+01  0.240E+01
   3.747  0.235E+01  0.234E+01
   3.757  0.229E+01  0.228E+01
   3.767  0.223E+01  0.222E+01
   3.777  0.218E+01  0.217E+01
   3.787  0.213E+01  0.212E+01
   3.797  0.208E+01  0.207E+01
   3.807  0.204E+01  0.203E+01
   3.817  0.199E+01  0.198E+01
   3.827  0.194E+01  0.193E+01
   3.837  0.189E+01  0.188E+01
   3.847  0.184E+01  0.183E+01
   3.857  0.179E+01  0.178E+01
   3.867  0.174E+01  0.173E+01
   3.877  0.169E+01  0.168E+01
   3.887  0.165E+01  0.164E+01
   3.897  0.160E+01  0.160E+01
   3.907  0.157E+01  0.156E+01
   3.917  0.154E+01  0.153E+01
   3.927  0.152E+01  0.151E+01
   3.937  0.150E+01  0.149E+01
   3.947  0.150E+01  0.149E+01
   3.957  0.151E+01  0.150E+01
   3.967  0.153E+01  0.152E+01
   3.977  0.156E+01  0.155E+01
   3.987  0.159E+01  0.158E+01
   3.997  0.164E+01  0.162E+01
   4.007  0.168E+01  0.167E+01
   4.017  0.173E+01  0.172E+01
   4.027  0.178E+01  0.177E+01
   4.037  0.183E+01  0.181E+01
   4.047  0.187E+01  0.186E+01
   4.057  0.191E+01  0.189E+01
   4.067  0.194E+01  0.192E+01
   4.077  0.195E+01  0.194E+01
   4.087  0.196E+01  0.195E+01
   4.097  0.196E+01  0.194E+01
   4.107  0.195E+01  0.193E+01
   4.117  0.193E+01  0.191E+01
   4.127  0.191E+01  0.189E+01
   4.137  0.187E+01  0.185E+01
   4.147  0.184E+01  0.182E+01
   4.157  0.179E+01  0.177E+01
   4.167  0.175E+01  0.173E+01
   4.177  0.171E+01  0.169E+01
   4.187  0.167E+01  0.165E+01
   4.197  0.164E+01  0.162E+01
   4.207  0.161E+01  0.159E+01
   4.217  0.159E+01  0.157E+01
   4.227  0.157E+01  0.155E+01
   4.237  0.156E+01  0.155E+01
   4.247  0.156E+01  0.154E+01
   4.257  0.157E+01  0.155E+01
   4.267  0.158E+01  0.156E+01
   4.277  0.159E+01  0.157E+01
   4.287  0.160E+01  0.158E+01
   4.297  0.161E+01  0.160E+01
   4.307  0.162E+01  0.161E+01
   4.317  0.163E+01  0.161E+01
   4.327  0.163E+01  0.161E+01
   4.337  0.162E+01  0.160E+01
   4.347  0.160E+01  0.158E+01
   4.357  0.157E+01  0.155E+01
   4.367  0.153E+01  0.151E+01
   4.377  0.148E+01  0.146E+01
   4.387  0.142E+01  0.141E+01
   4.397  0.135E+01  0.134E+01
   4.407  0.127E+01  0.126E+01
   4.417  0.119E+01  0.118E+01
   4.427  0.111E+01  0.110E+01
   4.437  0.102E+01  0.101E+01
   4.447  0.940E+00  0.932E+00
   4.457  0.861E+00  0.854E+00
   4.467  0.789E+00  0.782E+00
   4.477  0.724E+00  0.718E+00
   4.487  0.670E+00  0.664E+00
   4.497  0.627E+00  0.622E+00
   4.507  0.597E+00  0.591E+00
   4.517  0.580E+00  0.575E+00
   4.527  0.577E+00  0.572E+00
   4.537  0.588E+00  0.582E+00
   4.547  0.613E+00  0.607E+00
   4.557  0.650E+00  0.643E+00
   4.567  0.699E+00  0.692E+00
   4.577  0.758E+00  0.750E+00
   4.587  0.826E+00  0.817E+00
   4.597  0.900E+00  0.890E+00
   4.607  0.978E+00  0.968E+00
   4.617  0.106E+01  0.105E+01
   4.627  0.114E+01  0.112E+01
   4.637  0.121E+01  0.120E+01
   4.647  0.128E+01  0.127E+01
   4.657  0.134E+01  0.133E+01
   4.667  0.139E+01  0.138E+01
   4.677  0.143E+01  0.141E+01
   4.687  0.145E+01  0.144E+01
   4.697  0.146E+01  0.145E+01
   4.707  0.146E+01  0.145E+01
   4.717  0.144E+01  0.143E+01
   4.727  0.142E+01  0.140E+01
   4.737  0.138E+01  0.136E+01
   4.747  0.133E+01  0.131E+01
   4.757  0.127E+01  0.126E+01
   4.767  0.121E+01  0.120E+01
   4.777  0.115E+01  0.114E+01
   4.787  0.109E+01  0.108E+01
   4.797  0.103E+01  0.102E+01
   4.807  0.982E+00  0.969E+00
   4.817  0.938E+00  0.924E+00
   4.827  0.902E+00  0.888E+00
   4.837  0.877E+00  0.863E+00
   4.847  0.862E+00  0.847E+00
   4.857  0.858E+00  0.843E+00
   4.867  0.866E+00  0.850E+00
   4.877  0.884E+00  0.868E+00
   4.887  0.913E+00  0.895E+00
   4.897  0.950E+00  0.931E+00
   4.907  0.996E+00  0.976E+00
   4.917  0.105E+01  0.103E+01
   4.927  0.111E+01  0.108E+01
   4.937  0.117E+01  0.115E+01
   4.947  0.124E+01  0.121E+01
   4.957  0.130E+01  0.128E+01
   4.967  0.137E+01  0.134E+01
   4.977  0.144E+01  0.141E+01
   4.987  0.150E+01  0.147E+01
   4.997  0.156E+01  0.153E+01
   5.007  0.162E+01  0.159E+01
   5.017  0.167E+01  0.164E+01
   5.027  0.171E+01  0.168E+01
   5.037  0.174E+01  0.171E+01
   5.047  0.176E+01  0.173E+01
   5.057  0.177E+01  0.174E+01
   5.067  0.177E+01  0.174E+01
   5.077  0.175E+01  0.173E+01
   5.087  0.173E+01  0.170E+01
   5.097  0.169E+01  0.166E+01
   5.107  0.163E+01  0.161E+01
   5.117  0.157E+01  0.154E+01
   5.127  0.149E+01  0.147E+01
   5.137  0.141E+01  0.139E+01
   5.147  0.132E+01  0.130E+01
   5.157  0.122E+01  0.121E+01
   5.167  0.112E+01  0.111E+01
   5.177  0.102E+01  0.101E+01
   5.187  0.923E+00  0.909E+00
   5.197  0.824E+00  0.812E+00
   5.207  0.730E+00  0.719E+00
   5.217  0.642E+00  0.632E+00
   5.227  0.560E+00  0.551E+00
   5.237  0.486E+00  0.479E+00
   5.247  0.421E+00  0.415E+00
   5.257  0.365E+00  0.360E+00
   5.267  0.320E+00  0.315E+00
   5.277  0.284E+00  0.279E+00
   5.287  0.258E+00  0.254E+00
   5.297  0.243E+00  0.239E+00
   5.307  0.239E+00  0.235E+00
   5.317  0.245E+00  0.240E+00
   5.327  0.261E+00  0.256E+00
   5.337  0.287E+00  0.282E+00
   5.347  0.324E+00  0.317E+00
   5.357  0.370E+00  0.363E+00
   5.367  0.426E+00  0.418E+00
   5.377  0.491E+00  0.482E+00
   5.387  0.565E+00  0.553E+00
   5.397  0.645E+00  0.632E+00
   5.407  0.732E+00  0.718E+00
   5.417  0.824E+00  0.807E+00
   5.427  0.919E+00  0.900E+00
   5.437  0.102E+01  0.995E+00
   5.447  0.111E+01  0.109E+01
   5.457  0.121E+01  0.118E+01
   5.467  0.129E+01  0.127E+01
   5.477  0.138E+01  0.135E+01
   5.487  0.145E+01  0.142E+01
   5.497  0.152E+01  0.149E+01
   5.507  0.157E+01  0.154E+01
   5.517  0.162E+01  0.158E+01
   5.527  0.165E+01  0.161E+01
   5.537  0.167E+01  0.163E+01
   5.547  0.167E+01  0.164E+01
   5.557  0.167E+01  0.163E+01
   5.567  0.166E+01  0.162E+01
   5.577  0.163E+01  0.160E+01
   5.587  0.160E+01  0.156E+01
   5.597  0.156E+01  0.153E+01
   5.607  0.152E+01  0.148E+01
   5.617  0.147E+01  0.143E+01
   5.627  0.142E+01  0.138E+01
   5.637  0.136E+01  0.133E+01
   5.647  0.130E+01  0.127E+01
   5.657  0.125E+01  0.122E+01
   5.667  0.119E+01  0.116E+01
   5.677  0.113E+01  0.110E+01
   5.687  0.107E+01  0.105E+01
   5.697  0.102E+01  0.991E+00
   5.707  0.964E+00  0.938E+00
   5.717  0.913E+00  0.888E+00
   5.727  0.866E+00  0.842E+00
   5.737  0.823E+00  0.800E+00
   5.747  0.786E+00  0.764E+00
   5.757  0.756E+00  0.735E+00
   5.767  0.734E+00  0.713E+00
   5.777  0.721E+00  0.700E+00
   5.787  0.717E+00  0.697E+00
   5.797  0.724E+00  0.704E+00
   5.807  0.741E+00  0.721E+00
   5.817  0.769E+00  0.748E+00
   5.827  0.807E+00  0.785E+00
   5.837  0.854E+00  0.831E+00
   5.847  0.910E+00  0.885E+00
   5.857  0.972E+00  0.945E+00
   5.867  0.104E+01  0.101E+01
   5.877  0.111E+01  0.108E+01
   5.887  0.118E+01  0.114E+01
   5.897  0.124E+01  0.121E+01
   5.907  0.130E+01  0.127E+01
   5.917  0.136E+01  0.132E+01
   5.927  0.140E+01  0.136E+01
   5.937  0.143E+01  0.140E+01
   5.947  0.145E+01  0.142E+01
   5.957  0.146E+01  0.142E+01
   5.967  0.145E+01  0.141E+01
   5.977  0.143E+01  0.139E+01
   5.987  0.140E+01  0.136E+01
   5.997  0.135E+01  0.132E+01
   6.007  0.130E+01  0.126E+01
   6.017  0.123E+01  0.120E+01
   6.027  0.117E+01  0.113E+01
   6.037  0.110E+01  0.107E+01
   6.047  0.103E+01  0.999E+00
   6.057  0.961E+00  0.934E+00
   6.067  0.900E+00  0.875E+00
   6.077  0.848E+00  0.824E+00
   6.087  0.806E+00  0.782E+00
   6.097  0.776E+00  0.753E+00
   6.107  0.760E+00  0.737E+00
   6.117  0.758E+00  0.735E+00
   6.127  0.772E+00  0.747E+00
   6.137  0.801E+00  0.775E+00
   6.147  0.845E+00  0.817E+00
   6.157  0.903E+00  0.873E+00
   6.167  0.975E+00  0.942E+00
   6.177  0.106E+01  0.102E+01
   6.187  0.115E+01  0.111E+01
   6.197  0.126E+01  0.121E+01
   6.207  0.137E+01  0.132E+01
   6.217  0.148E+01  0.143E+01
   6.227  0.159E+01  0.154E+01
   6.237  0.171E+01  0.165E+01
   6.247  0.182E+01  0.176E+01
   6.257  0.193E+01  0.187E+01
   6.267  0.204E+01  0.197E+01
   6.277  0.213E+01  0.206E+01
   6.287  0.222E+01  0.214E+01
   6.297  0.230E+01  0.222E+01
   6.307  0.237E+01  0.229E+01
   6.317  0.243E+01  0.235E+01
   6.327  0.249E+01  0.240E+01
   6.337  0.253E+01  0.244E+01
   6.347  0.257E+01  0.248E+01
   6.357  0.261E+01  0.251E+01
   6.367  0.264E+01  0.254E+01
   6.377  0.266E+01  0.257E+01
   6.387  0.269E+01  0.259E+01
   6.397  0.271E+01  0.261E+01
   6.407  0.272E+01  0.262E+01
   6.417  0.273E+01  0.263E+01
   6.427  0.274E+01  0.264E+01
   6.437  0.274E+01  0.264E+01
   6.447  0.273E+01  0.263E+01
   6.457  0.271E+01  0.261E+01
   6.467  0.268E+01  0.258E+01
   6.477  0.264E+01  0.254E+01
   6.487  0.258E+01  0.248E+01
   6.497  0.251E+01  0.241E+01
   6.507  0.243E+01  0.233E+01
   6.517  0.233E+01  0.224E+01
   6.527  0.222E+01  0.213E+01
   6.537  0.210E+01  0.202E+01
   6.547  0.197E+01  0.190E+01
   6.557  0.184E+01  0.177E+01
   6.567  0.171E+01  0.164E+01
   6.577  0.158E+01  0.151E+01
   6.587  0.145E+01  0.139E+01
   6.597  0.133E+01  0.127E+01
   6.607  0.122E+01  0.116E+01
   6.617  0.113E+01  0.107E+01
   6.627  0.105E+01  0.989E+00
   6.637  0.987E+00  0.927E+00
   6.647  0.946E+00  0.883E+00
   6.657  0.926E+00  0.859E+00
   6.667  0.927E+00  0.853E+00
   6.677  0.948E+00  0.868E+00
   6.687  0.991E+00  0.901E+00
   6.697  0.105E+01  0.951E+00
   6.707  0.113E+01  0.102E+01
   6.717  0.123E+01  0.110E+01
   6.727  0.134E+01  0.119E+01
   6.737  0.146E+01  0.130E+01
   6.747  0.158E+01  0.141E+01
   6.757  0.172E+01  0.153E+01
   6.767  0.185E+01  0.165E+01
   6.777  0.198E+01  0.176E+01
   6.787  0.211E+01  0.188E+01
   6.797  0.224E+01  0.198E+01
   6.807  0.235E+01  0.208E+01
   6.817  0.245E+01  0.217E+01
   6.827  0.253E+01  0.225E+01
   6.837  0.261E+01  0.231E+01
   6.847  0.266E+01  0.236E+01
   6.857  0.270E+01  0.239E+01
   6.867  0.272E+01  0.241E+01
   6.877  0.273E+01  0.242E+01
   6.887  0.272E+01  0.241E+01
   6.897  0.270E+01  0.239E+01
   6.907  0.267E+01  0.236E+01
   6.917  0.262E+01  0.232E+01
   6.927  0.257E+01  0.227E+01
   6.937  0.251E+01  0.222E+01
   6.947  0.244E+01  0.216E+01
   6.957  0.238E+01  0.210E+01
   6.967  0.231E+01  0.204E+01
   6.977  0.224E+01  0.197E+01
   6.987  0.217E+01  0.191E+01
   6.997  0.210E+01  0.185E+01
   7.007  0.204E+01  0.179E+01
   7.017  0.198E+01  0.174E+01
   7.027  0.193E+01  0.169E+01
   7.037  0.188E+01  0.164E+01
   7.047  0.183E+01  0.160E+01
   7.057  0.179E+01  0.156E+01
   7.067  0.175E+01  0.152E+01
   7.077  0.172E+01  0.149E+01
   7.087  0.169E+01  0.146E+01
   7.097  0.166E+01  0.143E+01
   7.107  0.163E+01  0.141E+01
   7.117  0.161E+01  0.138E+01
   7.127  0.159E+01  0.136E+01
   7.137  0.156E+01  0.134E+01
   7.147  0.154E+01  0.133E+01
   7.157  0.152E+01  0.131E+01
   7.167  0.150E+01  0.129E+01
   7.177  0.147E+01  0.127E+01
   7.187  0.145E+01  0.125E+01
   7.197  0.142E+01  0.123E+01
   7.207  0.139E+01  0.121E+01
   7.217  0.136E+01  0.118E+01
   7.227  0.132E+01  0.116E+01
   7.237  0.129E+01  0.113E+01
   7.247  0.125E+01  0.110E+01
   7.257  0.122E+01  0.107E+01
   7.267  0.118E+01  0.104E+01
   7.277  0.115E+01  0.101E+01
   7.287  0.112E+01  0.978E+00
   7.297  0.109E+01  0.950E+00
   7.307  0.106E+01  0.925E+00
   7.317  0.105E+01  0.904E+00
   7.327  0.103E+01  0.887E+00
   7.337  0.103E+01  0.875E+00
   7.347  0.103E+01  0.869E+00
   7.357  0.104E+01  0.868E+00
   7.367  0.105E+01  0.874E+00
   7.377  0.107E+01  0.886E+00
   7.387  0.110E+01  0.902E+00
   7.397  0.113E+01  0.923E+00
   7.407  0.116E+01  0.948E+00
   7.417  0.120E+01  0.975E+00
   7.427  0.123E+01  0.100E+01
   7.437  0.126E+01  0.103E+01
   7.447  0.129E+01  0.106E+01
   7.457  0.132E+01  0.108E+01
   7.467  0.133E+01  0.110E+01
   7.477  0.134E+01  0.111E+01
   7.487  0.134E+01  0.112E+01
   7.497  0.134E+01  0.112E+01
   7.507  0.132E+01  0.111E+01
   7.517  0.129E+01  0.110E+01
   7.527  0.126E+01  0.107E+01
   7.537  0.121E+01  0.104E+01
   7.547  0.116E+01  0.100E+01
   7.557  0.111E+01  0.958E+00
   7.567  0.104E+01  0.909E+00
   7.577  0.977E+00  0.856E+00
   7.587  0.910E+00  0.800E+00
   7.597  0.842E+00  0.744E+00
   7.607  0.777E+00  0.688E+00
   7.617  0.715E+00  0.635E+00
   7.627  0.658E+00  0.585E+00
   7.637  0.608E+00  0.540E+00
   7.647  0.566E+00  0.502E+00
   7.657  0.534E+00  0.471E+00
   7.667  0.512E+00  0.449E+00
   7.677  0.501E+00  0.436E+00
   7.687  0.503E+00  0.432E+00
   7.697  0.516E+00  0.439E+00
   7.707  0.541E+00  0.456E+00
   7.717  0.577E+00  0.482E+00
   7.727  0.625E+00  0.517E+00
   7.737  0.683E+00  0.561E+00
   7.747  0.749E+00  0.612E+00
   7.757  0.822E+00  0.669E+00
   7.767  0.900E+00  0.729E+00
   7.777  0.981E+00  0.793E+00
   7.787  0.106E+01  0.857E+00
   7.797  0.114E+01  0.919E+00
   7.807  0.122E+01  0.977E+00
   7.817  0.128E+01  0.103E+01
   7.827  0.134E+01  0.108E+01
   7.837  0.139E+01  0.111E+01
   7.847  0.142E+01  0.114E+01
   7.857  0.144E+01  0.115E+01
   7.867  0.144E+01  0.116E+01
   7.877  0.143E+01  0.115E+01
   7.887  0.141E+01  0.113E+01
   7.897  0.137E+01  0.109E+01
   7.907  0.132E+01  0.105E+01
   7.917  0.125E+01  0.100E+01
   7.927  0.118E+01  0.944E+00
   7.937  0.110E+01  0.881E+00
   7.947  0.102E+01  0.816E+00
   7.957  0.938E+00  0.750E+00
   7.967  0.855E+00  0.684E+00
   7.977  0.774E+00  0.621E+00
   7.987  0.698E+00  0.563E+00
   7.997  0.629E+00  0.510E+00
   8.007  0.568E+00  0.464E+00
   8.017  0.516E+00  0.425E+00
   8.027  0.473E+00  0.395E+00
   8.037  0.442E+00  0.374E+00
   8.047  0.420E+00  0.362E+00
   8.057  0.409E+00  0.359E+00
   8.067  0.408E+00  0.364E+00
   8.077  0.416E+00  0.376E+00
   8.087  0.432E+00  0.396E+00
   8.097  0.456E+00  0.421E+00
   8.107  0.485E+00  0.452E+00
   8.117  0.519E+00  0.486E+00
   8.127  0.557E+00  0.522E+00
   8.137  0.596E+00  0.560E+00
   8.147  0.637E+00  0.597E+00
   8.157  0.676E+00  0.633E+00
   8.167  0.715E+00  0.667E+00
   8.177  0.750E+00  0.697E+00
   8.187  0.783E+00  0.723E+00
   8.197  0.812E+00  0.744E+00
   8.207  0.837E+00  0.760E+00
   8.217  0.858E+00  0.771E+00
   8.227  0.875E+00  0.777E+00
   8.237  0.889E+00  0.779E+00
   8.247  0.901E+00  0.776E+00
   8.257  0.911E+00  0.771E+00
   8.267  0.919E+00  0.763E+00
   8.277  0.927E+00  0.754E+00
   8.287  0.935E+00  0.745E+00
   8.297  0.944E+00  0.736E+00
   8.307  0.954E+00  0.728E+00
   8.317  0.966E+00  0.722E+00
   8.327  0.979E+00  0.718E+00
   8.337  0.994E+00  0.717E+00
   8.347  0.101E+01  0.719E+00
   8.357  0.103E+01  0.724E+00
   8.367  0.105E+01  0.732E+00
   8.377  0.106E+01  0.743E+00
   8.387  0.108E+01  0.756E+00
   8.397  0.110E+01  0.771E+00
   8.407  0.111E+01  0.787E+00
   8.417  0.112E+01  0.805E+00
   8.427  0.113E+01  0.822E+00
   8.437  0.114E+01  0.839E+00
   8.447  0.114E+01  0.856E+00
   8.457  0.114E+01  0.870E+00
   8.467  0.114E+01  0.882E+00
   8.477  0.113E+01  0.892E+00
   8.487  0.112E+01  0.898E+00
   8.497  0.110E+01  0.900E+00
   8.507  0.108E+01  0.898E+00
   8.517  0.106E+01  0.893E+00
   8.527  0.103E+01  0.883E+00
   8.537  0.100E+01  0.871E+00
   8.547  0.970E+00  0.855E+00
   8.557  0.938E+00  0.837E+00
   8.567  0.907E+00  0.818E+00
   8.577  0.878E+00  0.800E+00
   8.587  0.851E+00  0.783E+00
   8.597  0.830E+00  0.769E+00
   8.607  0.815E+00  0.761E+00
   8.617  0.807E+00  0.759E+00
   8.627  0.809E+00  0.765E+00
   8.637  0.822E+00  0.781E+00
   8.647  0.846E+00  0.807E+00
   8.657  0.884E+00  0.846E+00
   8.667  0.935E+00  0.897E+00
   8.677  0.100E+01  0.961E+00
   8.687  0.108E+01  0.104E+01
   8.697  0.117E+01  0.113E+01
   8.707  0.128E+01  0.123E+01
   8.717  0.139E+01  0.134E+01
   8.727  0.152E+01  0.146E+01
   8.737  0.165E+01  0.159E+01
   8.747  0.179E+01  0.173E+01
   8.757  0.194E+01  0.186E+01
   8.767  0.208E+01  0.200E+01
   8.777  0.222E+01  0.213E+01
   8.787  0.235E+01  0.225E+01
   8.797  0.248E+01  0.237E+01
   8.807  0.259E+01  0.247E+01
   8.817  0.269E+01  0.257E+01
   8.827  0.278E+01  0.264E+01
   8.837  0.285E+01  0.270E+01
   8.847  0.291E+01  0.274E+01
   8.857  0.295E+01  0.277E+01
   8.867  0.297E+01  0.278E+01
   8.877  0.298E+01  0.277E+01
   8.887  0.298E+01  0.275E+01
   8.897  0.296E+01  0.272E+01
   8.907  0.294E+01  0.267E+01
   8.917  0.291E+01  0.263E+01
   8.927  0.288E+01  0.257E+01
   8.937  0.285E+01  0.252E+01
   8.947  0.282E+01  0.247E+01
   8.957  0.278E+01  0.242E+01
   8.967  0.275E+01  0.237E+01
   8.977  0.272E+01  0.233E+01
   8.987  0.269E+01  0.229E+01
   8.997  0.267E+01  0.225E+01
   9.007  0.264E+01  0.221E+01
   9.017  0.260E+01  0.218E+01
   9.027  0.256E+01  0.214E+01
   9.037  0.252E+01  0.210E+01
   9.047  0.246E+01  0.205E+01
   9.057  0.240E+01  0.200E+01
   9.067  0.232E+01  0.194E+01
   9.077  0.224E+01  0.188E+01
   9.087  0.214E+01  0.180E+01
   9.097  0.203E+01  0.172E+01
   9.107  0.191E+01  0.162E+01
   9.117  0.179E+01  0.152E+01
   9.127  0.166E+01  0.142E+01
   9.137  0.152E+01  0.131E+01
   9.147  0.138E+01  0.119E+01
   9.157  0.125E+01  0.108E+01
   9.167  0.111E+01  0.970E+00
   9.177  0.986E+00  0.861E+00
   9.187  0.863E+00  0.757E+00
   9.197  0.749E+00  0.660E+00
   9.207  0.643E+00  0.569E+00
   9.217  0.547E+00  0.486E+00
   9.227  0.461E+00  0.411E+00
   9.237  0.385E+00  0.344E+00
   9.247  0.319E+00  0.287E+00
   9.257  0.263E+00  0.237E+00
   9.267  0.216E+00  0.195E+00
   9.277  0.177E+00  0.161E+00
   9.287  0.147E+00  0.134E+00
   9.297  0.124E+00  0.114E+00
   9.307  0.109E+00  0.100E+00
   9.317  0.996E-01  0.924E-01
   9.327  0.972E-01  0.906E-01
   9.337  0.101E+00  0.947E-01
   9.347  0.111E+00  0.105E+00
   9.357  0.128E+00  0.121E+00
   9.367  0.151E+00  0.143E+00
   9.377  0.182E+00  0.171E+00
   9.387  0.219E+00  0.207E+00
   9.397  0.264E+00  0.249E+00
   9.407  0.317E+00  0.298E+00
   9.417  0.377E+00  0.355E+00
   9.427  0.445E+00  0.418E+00
   9.437  0.521E+00  0.489E+00
   9.447  0.603E+00  0.566E+00
   9.457  0.692E+00  0.648E+00
   9.467  0.786E+00  0.735E+00
   9.477  0.885E+00  0.825E+00
   9.487  0.986E+00  0.917E+00
   9.497  0.109E+01  0.101E+01
   9.507  0.119E+01  0.110E+01
   9.517  0.129E+01  0.119E+01
   9.527  0.138E+01  0.127E+01
   9.537  0.147E+01  0.134E+01
   9.547  0.156E+01  0.141E+01
   9.557  0.163E+01  0.147E+01
   9.567  0.170E+01  0.152E+01
   9.577  0.175E+01  0.155E+01
   9.587  0.180E+01  0.158E+01
   9.597  0.183E+01  0.160E+01
   9.607  0.186E+01  0.161E+01
   9.617  0.188E+01  0.161E+01
   9.627  0.190E+01  0.160E+01
   9.637  0.190E+01  0.158E+01
   9.647  0.190E+01  0.157E+01
   9.657  0.190E+01  0.155E+01
   9.667  0.189E+01  0.152E+01
   9.677  0.188E+01  0.150E+01
   9.687  0.186E+01  0.147E+01
   9.697  0.184E+01  0.144E+01
   9.707  0.182E+01  0.142E+01
   9.717  0.179E+01  0.139E+01
   9.727  0.176E+01  0.136E+01
   9.737  0.173E+01  0.133E+01
   9.747  0.169E+01  0.130E+01
   9.757  0.164E+01  0.127E+01
   9.767  0.159E+01  0.123E+01
   9.777  0.153E+01  0.120E+01
   9.787  0.147E+01  0.116E+01
   9.797  0.140E+01  0.111E+01
   9.807  0.134E+01  0.107E+01
   9.817  0.127E+01  0.103E+01
   9.827  0.120E+01  0.985E+00
   9.837  0.114E+01  0.943E+00
   9.847  0.107E+01  0.903E+00
   9.857  0.102E+01  0.867E+00
   9.867  0.965E+00  0.834E+00
   9.877  0.920E+00  0.807E+00
   9.887  0.882E+00  0.785E+00
   9.897  0.852E+00  0.769E+00
   9.907  0.829E+00  0.759E+00
   9.917  0.814E+00  0.755E+00
   9.927  0.806E+00  0.755E+00
   9.937  0.804E+00  0.760E+00
   9.947  0.806E+00  0.769E+00
   9.957  0.813E+00  0.780E+00
   9.967  0.823E+00  0.793E+00
   9.977  0.834E+00  0.807E+00
   9.987  0.846E+00  0.821E+00
   9.997  0.859E+00  0.834E+00
  10.007  0.872E+00  0.847E+00
  10.017  0.885E+00  0.860E+00
  10.027  0.897E+00  0.871E+00
  10.037  0.910E+00  0.883E+00
  10.047  0.925E+00  0.895E+00
  10.057  0.941E+00  0.908E+00
  10.067  0.960E+00  0.924E+00
  10.077  0.982E+00  0.943E+00
  10.087  0.101E+01  0.965E+00
  10.097  0.104E+01  0.992E+00
  10.107  0.108E+01  0.102E+01
  10.117  0.112E+01  0.106E+01
  10.127  0.117E+01  0.110E+01
  10.137  0.122E+01  0.114E+01
  10.147  0.127E+01  0.119E+01
  10.157  0.132E+01  0.124E+01
  10.167  0.138E+01  0.128E+01
  10.177  0.143E+01  0.133E+01
  10.187  0.148E+01  0.137E+01
  10.197  0.152E+01  0.140E+01
  10.207  0.156E+01  0.143E+01
  10.217  0.159E+01  0.145E+01
  10.227  0.161E+01  0.147E+01
  10.237  0.162E+01  0.147E+01
  10.247  0.163E+01  0.146E+01
  10.257  0.162E+01  0.144E+01
  10.267  0.161E+01  0.142E+01
  10.277  0.159E+01  0.139E+01
  10.287  0.157E+01  0.135E+01
  10.297  0.154E+01  0.131E+01
  10.307  0.152E+01  0.127E+01
  10.317  0.149E+01  0.123E+01
  10.327  0.146E+01  0.119E+01
  10.337  0.144E+01  0.116E+01
  10.347  0.143E+01  0.113E+01
  10.357  0.141E+01  0.110E+01
  10.367  0.140E+01  0.108E+01
  10.377  0.140E+01  0.107E+01
  10.387  0.140E+01  0.106E+01
  10.397  0.140E+01  0.105E+01
  10.407  0.140E+01  0.105E+01
  10.417  0.140E+01  0.105E+01
  10.427  0.140E+01  0.106E+01
  10.437  0.140E+01  0.106E+01
  10.447  0.139E+01  0.106E+01
  10.457  0.138E+01  0.106E+01
  10.467  0.136E+01  0.106E+01
  10.477  0.133E+01  0.105E+01
  10.487  0.130E+01  0.103E+01
  10.497  0.126E+01  0.101E+01
  10.507  0.122E+01  0.987E+00
  10.517  0.116E+01  0.955E+00
  10.527  0.111E+01  0.919E+00
  10.537  0.105E+01  0.877E+00
  10.547  0.984E+00  0.832E+00
  10.557  0.920E+00  0.785E+00
  10.567  0.855E+00  0.736E+00
  10.577  0.792E+00  0.687E+00
  10.587  0.732E+00  0.639E+00
  10.597  0.677E+00  0.593E+00
  10.607  0.627E+00  0.552E+00
  10.617  0.584E+00  0.515E+00
  10.627  0.548E+00  0.484E+00
  10.637  0.522E+00  0.459E+00
  10.647  0.504E+00  0.442E+00
  10.657  0.495E+00  0.432E+00
  10.667  0.495E+00  0.429E+00
  10.677  0.505E+00  0.435E+00
  10.687  0.523E+00  0.447E+00
  10.697  0.548E+00  0.466E+00
  10.707  0.581E+00  0.492E+00
  10.717  0.620E+00  0.523E+00
  10.727  0.665E+00  0.560E+00
  10.737  0.714E+00  0.600E+00
  10.747  0.767E+00  0.644E+00
  10.757  0.822E+00  0.691E+00
  10.767  0.879E+00  0.741E+00
  10.777  0.937E+00  0.792E+00
  10.787  0.996E+00  0.844E+00
  10.797  0.106E+01  0.897E+00
  10.807  0.112E+01  0.951E+00
  10.817  0.117E+01  0.101E+01
  10.827  0.123E+01  0.106E+01
  10.837  0.129E+01  0.111E+01
  10.847  0.135E+01  0.117E+01
  10.857  0.140E+01  0.122E+01
  10.867  0.145E+01  0.127E+01
  10.877  0.150E+01  0.132E+01
  10.887  0.154E+01  0.136E+01
  10.897  0.158E+01  0.140E+01
  10.907  0.162E+01  0.143E+01
  10.917  0.164E+01  0.146E+01
  10.927  0.165E+01  0.148E+01
  10.937  0.166E+01  0.149E+01
  10.947  0.165E+01  0.148E+01
  10.957  0.164E+01  0.147E+01
  10.967  0.161E+01  0.145E+01
  10.977  0.156E+01  0.141E+01
  10.987  0.151E+01  0.136E+01
  10.997  0.145E+01  0.131E+01
  11.007  0.137E+01  0.124E+01
  11.017  0.129E+01  0.117E+01
  11.027  0.120E+01  0.109E+01
  11.037  0.111E+01  0.100E+01
  11.047  0.101E+01  0.917E+00
  11.057  0.914E+00  0.829E+00
  11.067  0.818E+00  0.742E+00
  11.077  0.724E+00  0.658E+00
  11.087  0.635E+00  0.577E+00
  11.097  0.551E+00  0.501E+00
  11.107  0.473E+00  0.430E+00
  11.117  0.402E+00  0.365E+00
  11.127  0.338E+00  0.307E+00
  11.137  0.281E+00  0.256E+00
  11.147  0.232E+00  0.210E+00
  11.157  0.189E+00  0.171E+00
  11.167  0.152E+00  0.138E+00
  11.177  0.121E+00  0.110E+00
  11.187  0.955E-01  0.868E-01
  11.197  0.745E-01  0.678E-01
  11.207  0.575E-01  0.523E-01
  11.217  0.439E-01  0.400E-01
  11.227  0.332E-01  0.302E-01
  11.237  0.248E-01  0.226E-01
  11.247  0.183E-01  0.167E-01
  11.257  0.134E-01  0.122E-01
  11.267  0.972E-02  0.884E-02
  11.277  0.697E-02  0.633E-02
  11.287  0.495E-02  0.450E-02
  11.297  0.349E-02  0.317E-02
  11.307  0.245E-02  0.223E-02
  11.317  0.173E-02  0.157E-02
  11.327  0.126E-02  0.114E-02
  11.337  0.978E-03  0.883E-03
  11.347  0.851E-03  0.765E-03
  11.357  0.866E-03  0.774E-03
  11.367  0.102E-02  0.910E-03
  11.377  0.134E-02  0.119E-02
  11.387  0.186E-02  0.165E-02
  11.397  0.264E-02  0.233E-02
  11.407  0.376E-02  0.332E-02
  11.417  0.532E-02  0.470E-02
  11.427  0.748E-02  0.661E-02
  11.437  0.104E-01  0.920E-02
  11.447  0.144E-01  0.127E-01
  11.457  0.196E-01  0.173E-01
  11.467  0.264E-01  0.233E-01
  11.477  0.352E-01  0.311E-01
  11.487  0.465E-01  0.411E-01
  11.497  0.608E-01  0.537E-01
  11.507  0.785E-01  0.693E-01
  11.517  0.100E+00  0.886E-01
  11.527  0.127E+00  0.112E+00
  11.537  0.159E+00  0.140E+00
  11.547  0.196E+00  0.173E+00
  11.557  0.240E+00  0.212E+00
  11.567  0.291E+00  0.257E+00
  11.577  0.349E+00  0.308E+00
  11.587  0.413E+00  0.365E+00
  11.597  0.484E+00  0.428E+00
  11.607  0.562E+00  0.496E+00
  11.617  0.644E+00  0.569E+00
  11.627  0.731E+00  0.646E+00
  11.637  0.821E+00  0.725E+00
  11.647  0.912E+00  0.805E+00
  11.657  0.100E+01  0.885E+00
  11.667  0.109E+01  0.962E+00
  11.677  0.117E+01  0.103E+01
  11.687  0.125E+01  0.110E+01
  11.697  0.131E+01  0.116E+01
  11.707  0.136E+01  0.120E+01
  11.717  0.140E+01  0.124E+01
  11.727  0.143E+01  0.126E+01
  11.737  0.144E+01  0.127E+01
  11.747  0.144E+01  0.127E+01
  11.757  0.142E+01  0.125E+01
  11.767  0.138E+01  0.122E+01
  11.777  0.133E+01  0.118E+01
  11.787  0.127E+01  0.113E+01
  11.797  0.120E+01  0.106E+01
  11.807  0.112E+01  0.993E+00
  11.817  0.104E+01  0.918E+00
  11.827  0.950E+00  0.839E+00
  11.837  0.860E+00  0.759E+00
  11.847  0.769E+00  0.679E+00
  11.857  0.681E+00  0.601E+00
  11.867  0.596E+00  0.527E+00
  11.877  0.517E+00  0.456E+00
  11.887  0.443E+00  0.391E+00
  11.897  0.375E+00  0.331E+00
  11.907  0.315E+00  0.278E+00
  11.917  0.261E+00  0.231E+00
  11.927  0.214E+00  0.189E+00
  11.937  0.174E+00  0.154E+00
  11.947  0.140E+00  0.123E+00
  11.957  0.111E+00  0.980E-01
  11.967  0.873E-01  0.771E-01
  11.977  0.679E-01  0.599E-01
  11.987  0.522E-01  0.461E-01
  11.997  0.397E-01  0.351E-01
  12.007  0.299E-01  0.264E-01
  12.017  0.223E-01  0.197E-01
  12.027  0.164E-01  0.145E-01
  12.037  0.120E-01  0.106E-01
  12.047  0.862E-02  0.761E-02
  12.057  0.615E-02  0.543E-02
  12.067  0.434E-02  0.383E-02
  12.077  0.304E-02  0.268E-02
  12.087  0.211E-02  0.186E-02
  12.097  0.146E-02  0.129E-02
  12.107  0.101E-02  0.892E-03
  12.117  0.721E-03  0.634E-03
  12.127  0.547E-03  0.479E-03
  12.137  0.467E-03  0.406E-03
  12.147  0.471E-03  0.406E-03
  12.157  0.559E-03  0.479E-03
  12.167  0.743E-03  0.634E-03
  12.177  0.105E-02  0.891E-03
  12.187  0.151E-02  0.128E-02
  12.197  0.218E-02  0.186E-02
  12.207  0.314E-02  0.267E-02
  12.217  0.449E-02  0.382E-02
  12.227  0.635E-02  0.540E-02
  12.237  0.889E-02  0.756E-02
  12.247  0.123E-01  0.105E-01
  12.257  0.169E-01  0.144E-01
  12.267  0.229E-01  0.195E-01
  12.277  0.307E-01  0.261E-01
  12.287  0.408E-01  0.347E-01
  12.297  0.535E-01  0.455E-01
  12.307  0.695E-01  0.591E-01
  12.317  0.893E-01  0.759E-01
  12.327  0.114E+00  0.965E-01
  12.337  0.143E+00  0.121E+00
  12.347  0.178E+00  0.151E+00
  12.357  0.219E+00  0.186E+00
  12.367  0.266E+00  0.226E+00
  12.377  0.320E+00  0.272E+00
  12.387  0.382E+00  0.324E+00
  12.397  0.450E+00  0.382E+00
  12.407  0.525E+00  0.445E+00
  12.417  0.605E+00  0.514E+00
  12.427  0.691E+00  0.586E+00
  12.437  0.780E+00  0.662E+00
  12.447  0.872E+00  0.739E+00
  12.457  0.964E+00  0.816E+00
  12.467  0.105E+01  0.892E+00
  12.477  0.114E+01  0.964E+00
  12.487  0.122E+01  0.103E+01
  12.497  0.130E+01  0.109E+01
  12.507  0.136E+01  0.114E+01
  12.517  0.141E+01  0.118E+01
  12.527  0.146E+01  0.121E+01
  12.537  0.148E+01  0.123E+01
  12.547  0.150E+01  0.124E+01
  12.557  0.150E+01  0.123E+01
  12.567  0.149E+01  0.121E+01
  12.577  0.147E+01  0.117E+01
  12.587  0.144E+01  0.113E+01
  12.597  0.140E+01  0.108E+01
  12.607  0.136E+01  0.102E+01
  12.617  0.131E+01  0.957E+00
  12.627  0.126E+01  0.889E+00
  12.637  0.121E+01  0.819E+00
  12.647  0.116E+01  0.749E+00
  12.657  0.112E+01  0.680E+00
  12.667  0.108E+01  0.614E+00
  12.677  0.104E+01  0.552E+00
  12.687  0.101E+01  0.494E+00
  12.697  0.978E+00  0.441E+00
  12.707  0.953E+00  0.393E+00
  12.717  0.930E+00  0.350E+00
  12.727  0.909E+00  0.312E+00
  12.737  0.889E+00  0.279E+00
  12.747  0.867E+00  0.250E+00
  12.757  0.845E+00  0.225E+00
  12.767  0.819E+00  0.203E+00
  12.777  0.791E+00  0.184E+00
  12.787  0.759E+00  0.166E+00
  12.797  0.724E+00  0.151E+00
  12.807  0.686E+00  0.137E+00
  12.817  0.646E+00  0.124E+00
  12.827  0.603E+00  0.113E+00
  12.837  0.559E+00  0.102E+00
  12.847  0.514E+00  0.914E-01
  12.857  0.471E+00  0.820E-01
  12.867  0.430E+00  0.734E-01
  12.877  0.392E+00  0.657E-01
  12.887  0.357E+00  0.589E-01
  12.897  0.329E+00  0.531E-01
  12.907  0.306E+00  0.484E-01
  12.917  0.290E+00  0.450E-01
  12.927  0.282E+00  0.429E-01
  12.937  0.282E+00  0.423E-01
  12.947  0.291E+00  0.433E-01
  12.957  0.310E+00  0.459E-01
  12.967  0.337E+00  0.503E-01
  12.977  0.374E+00  0.566E-01
  12.987  0.420E+00  0.647E-01
  12.997  0.474E+00  0.748E-01
  13.007  0.537E+00  0.869E-01
  13.017  0.607E+00  0.101E+00
  13.027  0.684E+00  0.117E+00
  13.037  0.765E+00  0.134E+00
  13.047  0.849E+00  0.154E+00
  13.057  0.936E+00  0.175E+00
  13.067  0.102E+01  0.197E+00
  13.077  0.111E+01  0.220E+00
  13.087  0.119E+01  0.244E+00
  13.097  0.126E+01  0.268E+00
  13.107  0.133E+01  0.293E+00
  13.117  0.139E+01  0.318E+00
  13.127  0.144E+01  0.344E+00
  13.137  0.148E+01  0.369E+00
  13.147  0.151E+01  0.395E+00
  13.157  0.153E+01  0.422E+00
  13.167  0.154E+01  0.450E+00
  13.177  0.155E+01  0.479E+00
  13.187  0.154E+01  0.509E+00
  13.197  0.154E+01  0.542E+00
  13.207  0.153E+01  0.578E+00
  13.217  0.152E+01  0.617E+00
  13.227  0.151E+01  0.658E+00
  13.237  0.150E+01  0.703E+00
  13.247  0.150E+01  0.751E+00
  13.257  0.150E+01  0.802E+00
  13.267  0.150E+01  0.855E+00
  13.277  0.151E+01  0.908E+00
  13.287  0.152E+01  0.962E+00
  13.297  0.154E+01  0.101E+01
  13.307  0.155E+01  0.106E+01
  13.317  0.157E+01  0.111E+01
  13.327  0.158E+01  0.114E+01
  13.337  0.159E+01  0.117E+01
  13.347  0.159E+01  0.120E+01
  13.357  0.158E+01  0.121E+01
  13.367  0.156E+01  0.121E+01
  13.377  0.153E+01  0.119E+01
  13.387  0.149E+01  0.117E+01
  13.397  0.144E+01  0.114E+01
  13.407  0.138E+01  0.110E+01
  13.417  0.131E+01  0.104E+01
  13.427  0.123E+01  0.982E+00
  13.437  0.115E+01  0.916E+00
  13.447  0.106E+01  0.845E+00
  13.457  0.967E+00  0.772E+00
  13.467  0.876E+00  0.697E+00
  13.477  0.788E+00  0.623E+00
  13.487  0.703E+00  0.551E+00
  13.497  0.624E+00  0.483E+00
  13.507  0.552E+00  0.418E+00
  13.517  0.488E+00  0.358E+00
  13.527  0.432E+00  0.303E+00
  13.537  0.387E+00  0.254E+00
  13.547  0.351E+00  0.211E+00
  13.557  0.325E+00  0.173E+00
  13.567  0.308E+00  0.141E+00
  13.577  0.302E+00  0.113E+00
  13.587  0.304E+00  0.900E-01
  13.597  0.315E+00  0.709E-01
  13.607  0.333E+00  0.554E-01
  13.617  0.358E+00  0.430E-01
  13.627  0.388E+00  0.331E-01
  13.637  0.423E+00  0.254E-01
  13.647  0.461E+00  0.195E-01
  13.657  0.502E+00  0.151E-01
  13.667  0.542E+00  0.120E-01
  13.677  0.582E+00  0.985E-02
  13.687  0.621E+00  0.855E-02
  13.697  0.656E+00  0.798E-02
  13.707  0.687E+00  0.806E-02
  13.717  0.714E+00  0.878E-02
  13.727  0.735E+00  0.101E-01
  13.737  0.751E+00  0.121E-01
  13.747  0.762E+00  0.149E-01
  13.757  0.768E+00  0.185E-01
  13.767  0.771E+00  0.230E-01
  13.777  0.771E+00  0.287E-01
  13.787  0.770E+00  0.356E-01
  13.797  0.770E+00  0.438E-01
  13.807  0.772E+00  0.536E-01
  13.817  0.779E+00  0.651E-01
  13.827  0.794E+00  0.783E-01
  13.837  0.817E+00  0.933E-01
  13.847  0.851E+00  0.110E+00
  13.857  0.898E+00  0.129E+00
  13.867  0.959E+00  0.149E+00
  13.877  0.103E+01  0.171E+00
  13.887  0.113E+01  0.194E+00
  13.897  0.123E+01  0.218E+00
  13.907  0.135E+01  0.243E+00
  13.917  0.149E+01  0.269E+00
  13.927  0.163E+01  0.294E+00
  13.937  0.179E+01  0.319E+00
  13.947  0.195E+01  0.344E+00
  13.957  0.211E+01  0.368E+00
  13.967  0.228E+01  0.392E+00
  13.977  0.244E+01  0.415E+00
  13.987  0.260E+01  0.437E+00
  13.997  0.275E+01  0.459E+00
  14.007  0.289E+01  0.481E+00
  14.017  0.301E+01  0.504E+00
  14.027  0.313E+01  0.528E+00
  14.037  0.322E+01  0.553E+00
  14.047  0.330E+01  0.581E+00
  14.057  0.337E+01  0.612E+00
  14.067  0.341E+01  0.646E+00
  14.077  0.345E+01  0.684E+00
  14.087  0.347E+01  0.724E+00
  14.097  0.348E+01  0.768E+00
  14.107  0.347E+01  0.814E+00
  14.117  0.346E+01  0.862E+00
  14.127  0.343E+01  0.910E+00
  14.137  0.340E+01  0.957E+00
  14.147  0.336E+01  0.100E+01
  14.157  0.331E+01  0.104E+01
  14.167  0.326E+01  0.108E+01
  14.177  0.319E+01  0.111E+01
  14.187  0.312E+01  0.113E+01
  14.197  0.303E+01  0.114E+01
  14.207  0.294E+01  0.114E+01
  14.217  0.284E+01  0.113E+01
  14.227  0.274E+01  0.111E+01
  14.237  0.262E+01  0.108E+01
  14.247  0.251E+01  0.104E+01
  14.257  0.238E+01  0.990E+00
  14.267  0.226E+01  0.934E+00
  14.277  0.214E+01  0.871E+00
  14.287  0.202E+01  0.805E+00
  14.297  0.190E+01  0.736E+00
  14.307  0.178E+01  0.665E+00
  14.317  0.167E+01  0.595E+00
  14.327  0.157E+01  0.527E+00
  14.337  0.148E+01  0.462E+00
  14.347  0.139E+01  0.400E+00
  14.357  0.131E+01  0.343E+00
  14.367  0.123E+01  0.291E+00
  14.377  0.117E+01  0.244E+00
  14.387  0.110E+01  0.202E+00
  14.397  0.104E+01  0.166E+00
  14.407  0.983E+00  0.135E+00
  14.417  0.928E+00  0.108E+00
  14.427  0.875E+00  0.863E-01
  14.437  0.825E+00  0.678E-01
  14.447  0.776E+00  0.528E-01
  14.457  0.729E+00  0.406E-01
  14.467  0.685E+00  0.309E-01
  14.477  0.645E+00  0.233E-01
  14.487  0.608E+00  0.174E-01
  14.497  0.576E+00  0.128E-01
  14.507  0.549E+00  0.934E-02
  14.517  0.528E+00  0.674E-02
  14.527  0.513E+00  0.483E-02
  14.537  0.506E+00  0.343E-02
  14.547  0.505E+00  0.243E-02
  14.557  0.510E+00  0.174E-02
  14.567  0.522E+00  0.127E-02
  14.577  0.538E+00  0.987E-03
  14.587  0.560E+00  0.849E-03
  14.597  0.584E+00  0.840E-03
  14.607  0.611E+00  0.953E-03
  14.617  0.638E+00  0.120E-02
  14.627  0.665E+00  0.159E-02
  14.637  0.690E+00  0.217E-02
  14.647  0.711E+00  0.298E-02
  14.657  0.728E+00  0.408E-02
  14.667  0.741E+00  0.556E-02
  14.677  0.748E+00  0.750E-02
  14.687  0.750E+00  0.100E-01
  14.697  0.746E+00  0.133E-01
  14.707  0.737E+00  0.174E-01
  14.717  0.724E+00  0.226E-01
  14.727  0.707E+00  0.291E-01
  14.737  0.689E+00  0.370E-01
  14.747  0.671E+00  0.467E-01
  14.757  0.654E+00  0.584E-01
  14.767  0.639E+00  0.723E-01
  14.777  0.630E+00  0.888E-01
  14.787  0.626E+00  0.108E+00
  14.797  0.631E+00  0.130E+00
  14.807  0.644E+00  0.156E+00
  14.817  0.668E+00  0.185E+00
  14.827  0.702E+00  0.218E+00
  14.837  0.748E+00  0.255E+00
  14.847  0.806E+00  0.295E+00
  14.857  0.876E+00  0.339E+00
  14.867  0.958E+00  0.388E+00
  14.877  0.105E+01  0.439E+00
  14.887  0.115E+01  0.495E+00
  14.897  0.127E+01  0.553E+00
  14.907  0.139E+01  0.614E+00
  14.917  0.151E+01  0.677E+00
  14.927  0.164E+01  0.741E+00
  14.937  0.177E+01  0.805E+00
  14.947  0.190E+01  0.870E+00
  14.957  0.202E+01  0.933E+00
  14.967  0.214E+01  0.993E+00
  14.977  0.225E+01  0.105E+01
  14.987  0.235E+01  0.110E+01
  14.997  0.243E+01  0.115E+01
  15.007  0.250E+01  0.118E+01
  15.017  0.255E+01  0.121E+01
  15.027  0.257E+01  0.123E+01
  15.037  0.258E+01  0.124E+01
  15.047  0.256E+01  0.124E+01
  15.057  0.252E+01  0.123E+01
  15.067  0.246E+01  0.121E+01
  15.077  0.238E+01  0.118E+01
  15.087  0.228E+01  0.113E+01
  15.097  0.216E+01  0.108E+01
  15.107  0.203E+01  0.103E+01
  15.117  0.189E+01  0.961E+00
  15.127  0.175E+01  0.892E+00
  15.137  0.160E+01  0.820E+00
  15.147  0.144E+01  0.746E+00
  15.157  0.129E+01  0.672E+00
  15.167  0.115E+01  0.600E+00
  15.177  0.101E+01  0.529E+00
  15.187  0.878E+00  0.463E+00
  15.197  0.758E+00  0.400E+00
  15.207  0.650E+00  0.342E+00
  15.217  0.553E+00  0.290E+00
  15.227  0.470E+00  0.243E+00
  15.237  0.398E+00  0.202E+00
  15.247  0.339E+00  0.165E+00
  15.257  0.292E+00  0.134E+00
  15.267  0.256E+00  0.108E+00
  15.277  0.231E+00  0.859E-01
  15.287  0.215E+00  0.676E-01
  15.297  0.210E+00  0.526E-01
  15.307  0.213E+00  0.405E-01
  15.317  0.224E+00  0.308E-01
  15.327  0.242E+00  0.233E-01
  15.337  0.267E+00  0.173E-01
  15.347  0.297E+00  0.128E-01
  15.357  0.332E+00  0.934E-02
  15.367  0.371E+00  0.674E-02
  15.377  0.412E+00  0.482E-02
  15.387  0.455E+00  0.340E-02
  15.397  0.498E+00  0.238E-02
  15.407  0.541E+00  0.165E-02
  15.417  0.581E+00  0.113E-02
  15.427  0.619E+00  0.769E-03
  15.437  0.652E+00  0.522E-03
  15.447  0.679E+00  0.357E-03
  15.457  0.700E+00  0.252E-03
  15.467  0.714E+00  0.193E-03
  15.477  0.721E+00  0.170E-03
  15.487  0.720E+00  0.181E-03
  15.497  0.711E+00  0.227E-03
  15.507  0.695E+00  0.315E-03
  15.517  0.672E+00  0.459E-03
  15.527  0.643E+00  0.679E-03
  15.537  0.609E+00  0.101E-02
  15.547  0.571E+00  0.148E-02
  15.557  0.529E+00  0.215E-02
  15.567  0.486E+00  0.311E-02
  15.577  0.443E+00  0.443E-02
  15.587  0.401E+00  0.626E-02
  15.597  0.360E+00  0.875E-02
  15.607  0.322E+00  0.121E-01
  15.617  0.289E+00  0.165E-01
  15.627  0.260E+00  0.224E-01
  15.637  0.237E+00  0.300E-01
  15.647  0.221E+00  0.397E-01
  15.657  0.212E+00  0.520E-01
  15.667  0.212E+00  0.674E-01
  15.677  0.221E+00  0.864E-01
  15.687  0.239E+00  0.110E+00
  15.697  0.267E+00  0.138E+00
  15.707  0.307E+00  0.171E+00
  15.717  0.359E+00  0.210E+00
  15.727  0.423E+00  0.255E+00
  15.737  0.499E+00  0.307E+00
  15.747  0.588E+00  0.365E+00
  15.757  0.690E+00  0.430E+00
  15.767  0.804E+00  0.500E+00
  15.777  0.930E+00  0.577E+00
  15.787  0.107E+01  0.657E+00
  15.797  0.121E+01  0.741E+00
  15.807  0.136E+01  0.827E+00
  15.817  0.152E+01  0.912E+00
  15.827  0.168E+01  0.996E+00
  15.837  0.183E+01  0.108E+01
  15.847  0.198E+01  0.115E+01
  15.857  0.212E+01  0.122E+01
  15.867  0.225E+01  0.127E+01
  15.877  0.237E+01  0.132E+01
  15.887  0.247E+01  0.135E+01
  15.897  0.255E+01  0.137E+01
  15.907  0.260E+01  0.137E+01
  15.917  0.264E+01  0.136E+01
  15.927  0.265E+01  0.133E+01
  15.937  0.263E+01  0.129E+01
  15.947  0.260E+01  0.124E+01
  15.957  0.254E+01  0.118E+01
  15.967  0.245E+01  0.111E+01
  15.977  0.236E+01  0.103E+01
  15.987  0.224E+01  0.951E+00
  15.997  0.212E+01  0.866E+00
  16.007  0.198E+01  0.780E+00
  16.017  0.184E+01  0.695E+00
  16.027  0.169E+01  0.613E+00
  16.037  0.154E+01  0.535E+00
  16.047  0.139E+01  0.462E+00
  16.057  0.125E+01  0.394E+00
  16.067  0.111E+01  0.333E+00
  16.077  0.981E+00  0.279E+00
  16.087  0.858E+00  0.231E+00
  16.097  0.745E+00  0.189E+00
  16.107  0.641E+00  0.154E+00
  16.117  0.547E+00  0.124E+00
  16.127  0.464E+00  0.989E-01
  16.137  0.390E+00  0.788E-01
  16.147  0.326E+00  0.630E-01
  16.157  0.271E+00  0.508E-01
  16.167  0.224E+00  0.420E-01
  16.177  0.186E+00  0.362E-01
  16.187  0.155E+00  0.331E-01
  16.197  0.132E+00  0.326E-01
  16.207  0.114E+00  0.346E-01
  16.217  0.103E+00  0.390E-01
  16.227  0.973E-01  0.459E-01
  16.237  0.971E-01  0.553E-01
  16.247  0.102E+00  0.675E-01
  16.257  0.112E+00  0.826E-01
  16.267  0.127E+00  0.101E+00
  16.277  0.147E+00  0.122E+00
  16.287  0.172E+00  0.147E+00
  16.297  0.201E+00  0.174E+00
  16.307  0.235E+00  0.206E+00
  16.317  0.274E+00  0.240E+00
  16.327  0.316E+00  0.276E+00
  16.337  0.363E+00  0.315E+00
  16.347  0.412E+00  0.356E+00
  16.357  0.465E+00  0.398E+00
  16.367  0.519E+00  0.440E+00
  16.377  0.575E+00  0.481E+00
  16.387  0.632E+00  0.520E+00
  16.397  0.688E+00  0.556E+00
  16.407  0.743E+00  0.589E+00
  16.417  0.795E+00  0.617E+00
  16.427  0.846E+00  0.639E+00
  16.437  0.892E+00  0.654E+00
  16.447  0.935E+00  0.663E+00
  16.457  0.974E+00  0.665E+00
  16.467  0.101E+01  0.660E+00
  16.477  0.104E+01  0.647E+00
  16.487  0.106E+01  0.628E+00
  16.497  0.108E+01  0.604E+00
  16.507  0.109E+01  0.573E+00
  16.517  0.110E+01  0.539E+00
  16.527  0.110E+01  0.501E+00
  16.537  0.110E+01  0.461E+00
  16.547  0.109E+01  0.420E+00
  16.557  0.107E+01  0.378E+00
  16.567  0.106E+01  0.337E+00
  16.577  0.103E+01  0.297E+00
  16.587  0.100E+01  0.260E+00
  16.597  0.969E+00  0.225E+00
  16.607  0.932E+00  0.193E+00
  16.617  0.891E+00  0.165E+00
  16.627  0.848E+00  0.140E+00
  16.637  0.803E+00  0.118E+00
  16.647  0.756E+00  0.101E+00
  16.657  0.710E+00  0.865E-01
  16.667  0.665E+00  0.758E-01
  16.677  0.622E+00  0.683E-01
  16.687  0.582E+00  0.639E-01
  16.697  0.547E+00  0.624E-01
  16.707  0.517E+00  0.636E-01
  16.717  0.494E+00  0.673E-01
  16.727  0.477E+00  0.733E-01
  16.737  0.467E+00  0.814E-01
  16.747  0.464E+00  0.915E-01
  16.757  0.468E+00  0.103E+00
  16.767  0.479E+00  0.116E+00
  16.777  0.496E+00  0.130E+00
  16.787  0.517E+00  0.145E+00
  16.797  0.543E+00  0.160E+00
  16.807  0.571E+00  0.176E+00
  16.817  0.601E+00  0.190E+00
  16.827  0.630E+00  0.204E+00
  16.837  0.658E+00  0.217E+00
  16.847  0.682E+00  0.228E+00
  16.857  0.703E+00  0.237E+00
  16.867  0.718E+00  0.244E+00
  16.877  0.727E+00  0.248E+00
  16.887  0.729E+00  0.250E+00
  16.897  0.724E+00  0.249E+00
  16.907  0.712E+00  0.245E+00
  16.917  0.693E+00  0.239E+00
  16.927  0.668E+00  0.230E+00
  16.937  0.637E+00  0.220E+00
  16.947  0.602E+00  0.207E+00
  16.957  0.563E+00  0.193E+00
  16.967  0.521E+00  0.179E+00
  16.977  0.478E+00  0.163E+00
  16.987  0.435E+00  0.147E+00
  16.997  0.393E+00  0.132E+00
  17.007  0.354E+00  0.117E+00
  17.017  0.317E+00  0.102E+00
  17.027  0.284E+00  0.883E-01
  17.037  0.256E+00  0.756E-01
  17.047  0.234E+00  0.640E-01
  17.057  0.217E+00  0.536E-01
  17.067  0.207E+00  0.445E-01
  17.077  0.203E+00  0.365E-01
  17.087  0.206E+00  0.296E-01
  17.097  0.215E+00  0.237E-01
  17.107  0.232E+00  0.189E-01
  17.117  0.255E+00  0.148E-01
  17.127  0.284E+00  0.115E-01
  17.137  0.320E+00  0.890E-02
  17.147  0.362E+00  0.681E-02
  17.157  0.409E+00  0.518E-02
  17.167  0.460E+00  0.392E-02
  17.177  0.516E+00  0.297E-02
  17.187  0.574E+00  0.227E-02
  17.197  0.635E+00  0.177E-02
  17.207  0.697E+00  0.143E-02
  17.217  0.759E+00  0.121E-02
  17.227  0.820E+00  0.108E-02
  17.237  0.880E+00  0.103E-02
  17.247  0.936E+00  0.104E-02
  17.257  0.989E+00  0.109E-02
  17.267  0.104E+01  0.118E-02
  17.277  0.108E+01  0.129E-02
  17.287  0.112E+01  0.141E-02
  17.297  0.115E+01  0.155E-02
  17.307  0.117E+01  0.169E-02
  17.317  0.118E+01  0.183E-02
  17.327  0.119E+01  0.197E-02
  17.337  0.119E+01  0.209E-02
  17.347  0.118E+01  0.220E-02
  17.357  0.116E+01  0.230E-02
  17.367  0.114E+01  0.237E-02
  17.377  0.111E+01  0.242E-02
  17.387  0.107E+01  0.245E-02
  17.397  0.103E+01  0.245E-02
  17.407  0.977E+00  0.243E-02
  17.417  0.923E+00  0.239E-02
  17.427  0.866E+00  0.233E-02
  17.437  0.806E+00  0.226E-02
  17.447  0.744E+00  0.219E-02
  17.457  0.681E+00  0.212E-02
  17.467  0.618E+00  0.207E-02
  17.477  0.556E+00  0.205E-02
  17.487  0.497E+00  0.208E-02
  17.497  0.440E+00  0.218E-02
  17.507  0.387E+00  0.238E-02
  17.517  0.338E+00  0.270E-02
  17.527  0.293E+00  0.319E-02
  17.537  0.254E+00  0.388E-02
  17.547  0.220E+00  0.484E-02
  17.557  0.191E+00  0.611E-02
  17.567  0.168E+00  0.776E-02
  17.577  0.150E+00  0.988E-02
  17.587  0.139E+00  0.125E-01
  17.597  0.133E+00  0.158E-01
  17.607  0.133E+00  0.198E-01
  17.617  0.139E+00  0.246E-01
  17.627  0.150E+00  0.303E-01
  17.637  0.167E+00  0.370E-01
  17.647  0.190E+00  0.447E-01
  17.657  0.219E+00  0.535E-01
  17.667  0.254E+00  0.634E-01
  17.677  0.294E+00  0.745E-01
  17.687  0.339E+00  0.866E-01
  17.697  0.389E+00  0.997E-01
  17.707  0.445E+00  0.114E+00
  17.717  0.504E+00  0.129E+00
  17.727  0.568E+00  0.144E+00
  17.737  0.635E+00  0.160E+00
  17.747  0.705E+00  0.177E+00
  17.757  0.778E+00  0.193E+00
  17.767  0.852E+00  0.210E+00
  17.777  0.928E+00  0.226E+00
  17.787  0.100E+01  0.242E+00
  17.797  0.108E+01  0.257E+00
  17.807  0.116E+01  0.272E+00
  17.817  0.123E+01  0.286E+00
  17.827  0.130E+01  0.298E+00
  17.837  0.137E+01  0.310E+00
  17.847  0.144E+01  0.320E+00
  17.857  0.150E+01  0.329E+00
  17.867  0.156E+01  0.337E+00
  17.877  0.161E+01  0.343E+00
  17.887  0.166E+01  0.347E+00
  17.897  0.169E+01  0.350E+00
  17.907  0.172E+01  0.351E+00
  17.917  0.173E+01  0.350E+00
  17.927  0.174E+01  0.347E+00
  17.937  0.173E+01  0.342E+00
  17.947  0.171E+01  0.334E+00
  17.957  0.168E+01  0.325E+00
  17.967  0.163E+01  0.314E+00
  17.977  0.158E+01  0.301E+00
  17.987  0.151E+01  0.286E+00
  17.997  0.143E+01  0.270E+00
  18.007  0.135E+01  0.253E+00
  18.017  0.125E+01  0.234E+00
  18.027  0.116E+01  0.215E+00
  18.037  0.106E+01  0.196E+00
  18.047  0.958E+00  0.177E+00
  18.057  0.858E+00  0.158E+00
  18.067  0.761E+00  0.140E+00
  18.077  0.669E+00  0.123E+00
  18.087  0.581E+00  0.107E+00
  18.097  0.500E+00  0.916E-01
  18.107  0.426E+00  0.779E-01
  18.117  0.359E+00  0.656E-01
  18.127  0.299E+00  0.546E-01
  18.137  0.247E+00  0.450E-01
  18.147  0.202E+00  0.367E-01
  18.157  0.163E+00  0.297E-01
  18.167  0.130E+00  0.237E-01
  18.177  0.103E+00  0.187E-01
  18.187  0.806E-01  0.147E-01
  18.197  0.624E-01  0.113E-01
  18.207  0.478E-01  0.869E-02
  18.217  0.362E-01  0.658E-02
  18.227  0.271E-01  0.493E-02
  18.237  0.201E-01  0.366E-02
  18.247  0.148E-01  0.268E-02
  18.257  0.107E-01  0.195E-02
  18.267  0.770E-02  0.140E-02
  18.277  0.547E-02  0.993E-03
  18.287  0.385E-02  0.698E-03
  18.297  0.267E-02  0.485E-03
  18.307  0.184E-02  0.334E-03
  18.317  0.125E-02  0.227E-03
  18.327  0.842E-03  0.153E-03
  18.337  0.561E-03  0.102E-03
  18.347  0.369E-03  0.670E-04
  18.357  0.241E-03  0.437E-04
  18.367  0.155E-03  0.282E-04
