#  E (eV)   dosup(E)     dosdw(E)   Int dos(E) EFermi =  15.320 eV
   5.000  0.0000E+00  0.0000E+00  0.0000E+00
   5.100  0.0000E+00  0.0000E+00  0.0000E+00
   5.200  0.0000E+00  0.0000E+00  0.0000E+00
   5.300  0.0000E+00  0.0000E+00  0.0000E+00
   5.400  0.0000E+00  0.0000E+00  0.0000E+00
   5.500  0.0000E+00  0.0000E+00  0.0000E+00
   5.600  0.0000E+00  0.0000E+00  0.0000E+00
   5.700  0.0000E+00  0.0000E+00  0.0000E+00
   5.800  0.2589E-03  0.3296E-04  0.2919E-04
   5.900  0.2174E-02  0.1316E-02  0.3782E-03
   6.000  0.5955E-02  0.4463E-02  0.1420E-02
   6.100  0.2173E-01  0.1943E-01  0.5536E-02
   6.200  0.1559E-01  0.1467E-01  0.8562E-02
   6.300  0.1833E-01  0.1733E-01  0.1213E-01
   6.400  0.2126E-01  0.2017E-01  0.1627E-01
   6.500  0.2437E-01  0.2320E-01  0.2103E-01
   6.600  0.2887E-01  0.2735E-01  0.2665E-01
   6.700  0.3184E-01  0.3084E-01  0.3292E-01
   6.800  0.3220E-01  0.3268E-01  0.3941E-01
   6.900  0.3230E-01  0.3136E-01  0.4577E-01
   7.000  0.3437E-01  0.3330E-01  0.5254E-01
   7.100  0.3665E-01  0.3543E-01  0.5975E-01
   7.200  0.3914E-01  0.3777E-01  0.6744E-01
   7.300  0.4179E-01  0.4029E-01  0.7565E-01
   7.400  0.4451E-01  0.4290E-01  0.8439E-01
   7.500  0.4731E-01  0.4556E-01  0.9367E-01
   7.600  0.4922E-01  0.4770E-01  0.1034E+00
   7.700  0.5120E-01  0.4941E-01  0.1134E+00
   7.800  0.5314E-01  0.5117E-01  0.1239E+00
   7.900  0.5495E-01  0.5287E-01  0.1346E+00
   8.000  0.5659E-01  0.5423E-01  0.1457E+00
   8.100  0.5909E-01  0.5604E-01  0.1572E+00
   8.200  0.6217E-01  0.5857E-01  0.1693E+00
   8.300  0.6546E-01  0.6141E-01  0.1820E+00
   8.400  0.6893E-01  0.6440E-01  0.1953E+00
   8.500  0.7259E-01  0.6754E-01  0.2093E+00
   8.600  0.7626E-01  0.7082E-01  0.2240E+00
   8.700  0.7934E-01  0.7375E-01  0.2394E+00
   8.800  0.8453E-01  0.7594E-01  0.2554E+00
   8.900  0.8942E-01  0.8030E-01  0.2724E+00
   9.000  0.9469E-01  0.8407E-01  0.2903E+00
   9.100  0.1003E+00  0.8806E-01  0.3091E+00
   9.200  0.1060E+00  0.9220E-01  0.3289E+00
   9.300  0.1130E+00  0.9640E-01  0.3498E+00
   9.400  0.1217E+00  0.1012E+00  0.3721E+00
   9.500  0.1315E+00  0.1071E+00  0.3960E+00
   9.600  0.1427E+00  0.1138E+00  0.4216E+00
   9.700  0.1550E+00  0.1214E+00  0.4493E+00
   9.800  0.1741E+00  0.1296E+00  0.4797E+00
   9.900  0.2182E+00  0.1388E+00  0.5154E+00
  10.000  0.2687E+00  0.1503E+00  0.5573E+00
  10.100  0.3231E+00  0.1707E+00  0.6066E+00
  10.200  0.3843E+00  0.1920E+00  0.6643E+00
  10.300  0.5338E+00  0.2197E+00  0.7396E+00
  10.400  0.5300E+00  0.2567E+00  0.8183E+00
  10.500  0.5573E+00  0.3062E+00  0.9046E+00
  10.600  0.5651E+00  0.3857E+00  0.9997E+00
  10.700  0.6018E+00  0.4799E+00  0.1108E+01
  10.800  0.7809E+00  0.4751E+00  0.1233E+01
  10.900  0.8088E+00  0.4966E+00  0.1364E+01
  11.000  0.9389E+00  0.5143E+00  0.1509E+01
  11.100  0.9457E+00  0.5353E+00  0.1657E+01
  11.200  0.9552E+00  0.5291E+00  0.1806E+01
  11.300  0.8029E+00  0.5400E+00  0.1940E+01
  11.400  0.5926E+00  0.6792E+00  0.2067E+01
  11.500  0.7591E+00  0.8091E+00  0.2224E+01
  11.600  0.8441E+00  0.8764E+00  0.2396E+01
  11.700  0.7898E+00  0.7883E+00  0.2554E+01
  11.800  0.7499E+00  0.6592E+00  0.2695E+01
  11.900  0.7762E+00  0.6008E+00  0.2833E+01
  12.000  0.8132E+00  0.7466E+00  0.2989E+01
  12.100  0.8437E+00  0.8238E+00  0.3155E+01
  12.200  0.1045E+01  0.8058E+00  0.3340E+01
  12.300  0.1176E+01  0.7416E+00  0.3532E+01
  12.400  0.1160E+01  0.6947E+00  0.3718E+01
  12.500  0.1167E+01  0.7032E+00  0.3905E+01
  12.600  0.1357E+01  0.7605E+00  0.4116E+01
  12.700  0.1336E+01  0.8358E+00  0.4334E+01
  12.800  0.1648E+01  0.1077E+01  0.4606E+01
  12.900  0.1576E+01  0.1145E+01  0.4878E+01
  13.000  0.1111E+01  0.1135E+01  0.5103E+01
  13.100  0.1012E+01  0.1168E+01  0.5321E+01
  13.200  0.1024E+01  0.1279E+01  0.5551E+01
  13.300  0.9375E+00  0.1274E+01  0.5772E+01
  13.400  0.9476E+00  0.1439E+01  0.6011E+01
  13.500  0.9052E+00  0.1074E+01  0.6209E+01
  13.600  0.9599E+00  0.1522E+01  0.6457E+01
  13.700  0.1285E+01  0.1183E+01  0.6704E+01
  13.800  0.1361E+01  0.1040E+01  0.6944E+01
  13.900  0.1252E+01  0.1070E+01  0.7176E+01
  14.000  0.1157E+01  0.9427E+00  0.7386E+01
  14.100  0.1090E+01  0.8642E+00  0.7582E+01
  14.200  0.1174E+01  0.8471E+00  0.7784E+01
  14.300  0.1175E+01  0.1087E+01  0.8010E+01
  14.400  0.1240E+01  0.1320E+01  0.8266E+01
  14.500  0.1417E+01  0.1252E+01  0.8533E+01
  14.600  0.2171E+01  0.1055E+01  0.8855E+01
  14.700  0.2166E+01  0.1018E+01  0.9174E+01
  14.800  0.1121E+01  0.1002E+01  0.9386E+01
  14.900  0.1803E+00  0.1020E+01  0.9506E+01
  15.000  0.1831E+00  0.1044E+01  0.9629E+01
  15.100  0.1801E+00  0.1099E+01  0.9757E+01
  15.200  0.1755E+00  0.1182E+01  0.9892E+01
  15.300  0.1662E+00  0.1434E+01  0.1005E+02
  15.400  0.1572E+00  0.2169E+01  0.1029E+02
  15.500  0.1538E+00  0.1381E+01  0.1044E+02
  15.600  0.1516E+00  0.9355E+00  0.1055E+02
  15.700  0.1501E+00  0.2034E+00  0.1058E+02
  15.800  0.1495E+00  0.1999E+00  0.1062E+02
  15.900  0.1553E+00  0.1971E+00  0.1065E+02
  16.000  0.1611E+00  0.1835E+00  0.1069E+02
  16.100  0.1519E+00  0.1770E+00  0.1072E+02
  16.200  0.1496E+00  0.1726E+00  0.1075E+02
  16.300  0.1475E+00  0.1684E+00  0.1078E+02
  16.400  0.1448E+00  0.1832E+00  0.1082E+02
  16.500  0.1408E+00  0.1674E+00  0.1085E+02
  16.600  0.1385E+00  0.1659E+00  0.1088E+02
  16.700  0.1368E+00  0.1641E+00  0.1091E+02
  16.800  0.1354E+00  0.1620E+00  0.1094E+02
  16.900  0.1344E+00  0.1596E+00  0.1097E+02
  17.000  0.1335E+00  0.1566E+00  0.1100E+02
  17.100  0.1328E+00  0.1522E+00  0.1102E+02
  17.200  0.1323E+00  0.1495E+00  0.1105E+02
  17.300  0.1322E+00  0.1474E+00  0.1108E+02
  17.400  0.1321E+00  0.1458E+00  0.1111E+02
  17.500  0.1312E+00  0.1443E+00  0.1114E+02
  17.600  0.1308E+00  0.1437E+00  0.1116E+02
  17.700  0.1309E+00  0.1437E+00  0.1119E+02
  17.800  0.1317E+00  0.1435E+00  0.1122E+02
  17.900  0.1325E+00  0.1445E+00  0.1125E+02
  18.000  0.1295E+00  0.1442E+00  0.1127E+02
  18.100  0.1287E+00  0.1404E+00  0.1130E+02
  18.200  0.1289E+00  0.1376E+00  0.1133E+02
  18.300  0.1285E+00  0.1370E+00  0.1135E+02
  18.400  0.1268E+00  0.1358E+00  0.1138E+02
  18.500  0.1246E+00  0.1345E+00  0.1141E+02
  18.600  0.1220E+00  0.1350E+00  0.1143E+02
  18.700  0.1192E+00  0.1336E+00  0.1146E+02
  18.800  0.1166E+00  0.1313E+00  0.1148E+02
  18.900  0.1140E+00  0.1284E+00  0.1151E+02
  19.000  0.1115E+00  0.1252E+00  0.1153E+02
  19.100  0.1094E+00  0.1219E+00  0.1155E+02
  19.200  0.1073E+00  0.1187E+00  0.1158E+02
  19.300  0.1051E+00  0.1159E+00  0.1160E+02
  19.400  0.1028E+00  0.1134E+00  0.1162E+02
  19.500  0.1052E+00  0.1111E+00  0.1164E+02
  19.600  0.1036E+00  0.1085E+00  0.1166E+02
  19.700  0.9980E-01  0.1057E+00  0.1168E+02
  19.800  0.9794E-01  0.1118E+00  0.1170E+02
  19.900  0.9668E-01  0.1051E+00  0.1172E+02
  20.000  0.9529E-01  0.1022E+00  0.1174E+02
  20.100  0.9378E-01  0.1008E+00  0.1176E+02
  20.200  0.9213E-01  0.9928E-01  0.1178E+02
  20.300  0.9036E-01  0.9766E-01  0.1180E+02
  20.400  0.8846E-01  0.9591E-01  0.1182E+02
  20.500  0.8109E-01  0.9404E-01  0.1184E+02
  20.600  0.7421E-01  0.9204E-01  0.1185E+02
  20.700  0.6920E-01  0.8992E-01  0.1187E+02
  20.800  0.6481E-01  0.8194E-01  0.1188E+02
  20.900  0.6076E-01  0.7477E-01  0.1190E+02
  21.000  0.5705E-01  0.6989E-01  0.1191E+02
  21.100  0.5633E-01  0.6538E-01  0.1192E+02
  21.200  0.5388E-01  0.6123E-01  0.1193E+02
  21.300  0.4811E-01  0.5782E-01  0.1194E+02
  21.400  0.3902E-01  0.5725E-01  0.1195E+02
  21.500  0.2659E-01  0.5328E-01  0.1196E+02
  21.600  0.1741E-01  0.4585E-01  0.1197E+02
  21.700  0.3222E-01  0.3495E-01  0.1198E+02
  21.800  0.3929E-01  0.2059E-01  0.1198E+02
  21.900  0.5167E-01  0.1134E-01  0.1199E+02
  22.000  0.6390E-01  0.1205E-01  0.1200E+02
  22.100  0.7656E-01  0.3312E-01  0.1201E+02
  22.200  0.8845E-01  0.4266E-01  0.1202E+02
  22.300  0.9750E-01  0.5789E-01  0.1203E+02
  22.400  0.1033E+00  0.7294E-01  0.1205E+02
  22.500  0.1103E+00  0.8827E-01  0.1207E+02
  22.600  0.1173E+00  0.1009E+00  0.1209E+02
  22.700  0.1241E+00  0.1083E+00  0.1212E+02
  22.800  0.1301E+00  0.1158E+00  0.1214E+02
  22.900  0.1364E+00  0.1237E+00  0.1217E+02
  23.000  0.1416E+00  0.1316E+00  0.1220E+02
  23.100  0.1459E+00  0.1386E+00  0.1222E+02
  23.200  0.1511E+00  0.1453E+00  0.1225E+02
  23.300  0.1548E+00  0.1511E+00  0.1228E+02
  23.400  0.1565E+00  0.1564E+00  0.1232E+02
  23.500  0.1573E+00  0.1623E+00  0.1235E+02
  23.600  0.1583E+00  0.1628E+00  0.1238E+02
  23.700  0.1583E+00  0.1629E+00  0.1241E+02
  23.800  0.1574E+00  0.1635E+00  0.1244E+02
  23.900  0.1554E+00  0.1636E+00  0.1248E+02
  24.000  0.1755E+00  0.1626E+00  0.1251E+02
  24.100  0.1429E+00  0.1604E+00  0.1254E+02
  24.200  0.1372E+00  0.1863E+00  0.1257E+02
  24.300  0.1324E+00  0.1535E+00  0.1260E+02
  24.400  0.1286E+00  0.1416E+00  0.1263E+02
  24.500  0.1254E+00  0.1363E+00  0.1265E+02
  24.600  0.1224E+00  0.1318E+00  0.1268E+02
  24.700  0.1197E+00  0.1284E+00  0.1270E+02
  24.800  0.1172E+00  0.1253E+00  0.1273E+02
  24.900  0.1152E+00  0.1224E+00  0.1275E+02
  25.000  0.1143E+00  0.1198E+00  0.1278E+02
