# E (eV)  ldosup(E)  ldosdw(E) pdosup(E)  pdosdw(E) 
  5.000 -0.391E-05 -0.216E-05 -0.391E-05 -0.216E-05
  5.100 -0.182E-04 -0.112E-04 -0.182E-04 -0.112E-04
  5.200 -0.601E-04 -0.417E-04 -0.601E-04 -0.417E-04
  5.300 -0.139E-03 -0.109E-03 -0.139E-03 -0.109E-03
  5.400 -0.222E-03 -0.197E-03 -0.222E-03 -0.197E-03
  5.500 -0.247E-03 -0.249E-03 -0.247E-03 -0.249E-03
  5.600 -0.754E-04 -0.180E-03 -0.754E-04 -0.180E-03
  5.700  0.106E-02  0.466E-03  0.106E-02  0.466E-03
  5.800  0.502E-02  0.324E-02  0.502E-02  0.324E-02
  5.900  0.127E-01  0.982E-02  0.127E-01  0.982E-02
  6.000  0.206E-01  0.183E-01  0.206E-01  0.183E-01
  6.100  0.222E-01  0.226E-01  0.222E-01  0.226E-01
  6.200  0.171E-01  0.192E-01  0.171E-01  0.192E-01
  6.300  0.126E-01  0.135E-01  0.126E-01  0.135E-01
  6.400  0.150E-01  0.133E-01  0.150E-01  0.133E-01
  6.500  0.241E-01  0.203E-01  0.241E-01  0.203E-01
  6.600  0.379E-01  0.326E-01  0.379E-01  0.326E-01
  6.700  0.520E-01  0.474E-01  0.520E-01  0.474E-01
  6.800  0.559E-01  0.563E-01  0.559E-01  0.563E-01
  6.900  0.426E-01  0.491E-01  0.426E-01  0.491E-01
  7.000  0.210E-01  0.287E-01  0.210E-01  0.287E-01
  7.100  0.729E-02  0.105E-01  0.729E-02  0.105E-01
  7.200  0.103E-01  0.677E-02  0.103E-01  0.677E-02
  7.300  0.304E-01  0.205E-01  0.304E-01  0.205E-01
  7.400  0.590E-01  0.475E-01  0.590E-01  0.475E-01
  7.500  0.776E-01  0.728E-01  0.776E-01  0.728E-01
  7.600  0.728E-01  0.775E-01  0.728E-01  0.775E-01
  7.700  0.552E-01  0.617E-01  0.552E-01  0.617E-01
  7.800  0.465E-01  0.466E-01  0.465E-01  0.466E-01
  7.900  0.528E-01  0.473E-01  0.528E-01  0.473E-01
  8.000  0.626E-01  0.582E-01  0.626E-01  0.582E-01
  8.100  0.619E-01  0.648E-01  0.619E-01  0.648E-01
  8.200  0.453E-01  0.566E-01  0.453E-01  0.566E-01
  8.300  0.229E-01  0.347E-01  0.229E-01  0.347E-01
  8.400  0.160E-01  0.155E-01  0.160E-01  0.155E-01
  8.500  0.397E-01  0.188E-01  0.397E-01  0.188E-01
  8.600  0.861E-01  0.523E-01  0.861E-01  0.523E-01
  8.700  0.123E+00  0.100E+00  0.123E+00  0.100E+00
  8.800  0.121E+00  0.128E+00  0.121E+00  0.128E+00
  8.900  0.923E-01  0.114E+00  0.923E-01  0.114E+00
  9.000  0.739E-01  0.806E-01  0.739E-01  0.806E-01
  9.100  0.772E-01  0.648E-01  0.772E-01  0.648E-01
  9.200  0.807E-01  0.726E-01  0.807E-01  0.726E-01
  9.300  0.665E-01  0.808E-01  0.665E-01  0.808E-01
  9.400  0.437E-01  0.709E-01  0.437E-01  0.709E-01
  9.500  0.380E-01  0.484E-01  0.380E-01  0.484E-01
  9.600  0.654E-01  0.346E-01  0.654E-01  0.346E-01
  9.700  0.115E+00  0.470E-01  0.115E+00  0.470E-01
  9.800  0.156E+00  0.839E-01  0.156E+00  0.839E-01
  9.900  0.167E+00  0.126E+00  0.167E+00  0.126E+00
 10.000  0.155E+00  0.153E+00  0.155E+00  0.153E+00
 10.100  0.140E+00  0.155E+00  0.140E+00  0.155E+00
 10.200  0.128E+00  0.140E+00  0.128E+00  0.140E+00
 10.300  0.114E+00  0.121E+00  0.114E+00  0.121E+00
 10.400  0.102E+00  0.107E+00  0.102E+00  0.107E+00
 10.500  0.994E-01  0.100E+00  0.994E-01  0.100E+00
 10.600  0.111E+00  0.978E-01  0.111E+00  0.978E-01
 10.700  0.123E+00  0.996E-01  0.123E+00  0.996E-01
 10.800  0.118E+00  0.113E+00  0.118E+00  0.113E+00
 10.900  0.934E-01  0.139E+00  0.934E-01  0.139E+00
 11.000  0.635E-01  0.156E+00  0.635E-01  0.156E+00
 11.100  0.425E-01  0.138E+00  0.425E-01  0.138E+00
 11.200  0.329E-01  0.955E-01  0.329E-01  0.955E-01
 11.300  0.285E-01  0.616E-01  0.285E-01  0.616E-01
 11.400  0.229E-01  0.516E-01  0.229E-01  0.516E-01
 11.500  0.152E-01  0.529E-01  0.152E-01  0.529E-01
 11.600  0.916E-02  0.497E-01  0.916E-02  0.497E-01
 11.700  0.803E-02  0.398E-01  0.803E-02  0.398E-01
 11.800  0.119E-01  0.282E-01  0.119E-01  0.282E-01
 11.900  0.188E-01  0.183E-01  0.188E-01  0.183E-01
 12.000  0.260E-01  0.111E-01  0.260E-01  0.111E-01
 12.100  0.308E-01  0.685E-02  0.308E-01  0.685E-02
 12.200  0.317E-01  0.608E-02  0.317E-01  0.608E-02
 12.300  0.299E-01  0.827E-02  0.299E-01  0.827E-02
 12.400  0.295E-01  0.123E-01  0.295E-01  0.123E-01
 12.500  0.348E-01  0.174E-01  0.348E-01  0.174E-01
 12.600  0.457E-01  0.230E-01  0.457E-01  0.230E-01
 12.700  0.560E-01  0.278E-01  0.560E-01  0.278E-01
 12.800  0.588E-01  0.303E-01  0.588E-01  0.303E-01
 12.900  0.527E-01  0.323E-01  0.527E-01  0.323E-01
 13.000  0.409E-01  0.379E-01  0.409E-01  0.379E-01
 13.100  0.277E-01  0.473E-01  0.277E-01  0.473E-01
 13.200  0.167E-01  0.551E-01  0.167E-01  0.551E-01
 13.300  0.110E-01  0.563E-01  0.110E-01  0.563E-01
 13.400  0.114E-01  0.507E-01  0.114E-01  0.507E-01
 13.500  0.153E-01  0.409E-01  0.153E-01  0.409E-01
 13.600  0.195E-01  0.300E-01  0.195E-01  0.300E-01
 13.700  0.231E-01  0.212E-01  0.231E-01  0.212E-01
 13.800  0.258E-01  0.169E-01  0.258E-01  0.169E-01
 13.900  0.262E-01  0.172E-01  0.262E-01  0.172E-01
 14.000  0.244E-01  0.194E-01  0.244E-01  0.194E-01
 14.100  0.237E-01  0.214E-01  0.237E-01  0.214E-01
 14.200  0.259E-01  0.243E-01  0.259E-01  0.243E-01
 14.300  0.284E-01  0.289E-01  0.284E-01  0.289E-01
 14.400  0.268E-01  0.303E-01  0.268E-01  0.303E-01
 14.500  0.203E-01  0.238E-01  0.203E-01  0.238E-01
 14.600  0.116E-01  0.132E-01  0.116E-01  0.132E-01
 14.700  0.448E-02  0.767E-02  0.448E-02  0.767E-02
 14.800  0.230E-02  0.112E-01  0.230E-02  0.112E-01
 14.900  0.782E-02  0.191E-01  0.782E-02  0.191E-01
 15.000  0.218E-01  0.233E-01  0.218E-01  0.233E-01
 15.100  0.427E-01  0.208E-01  0.427E-01  0.208E-01
 15.200  0.638E-01  0.146E-01  0.638E-01  0.146E-01
 15.300  0.732E-01  0.846E-02  0.732E-01  0.846E-02
 15.400  0.647E-01  0.464E-02  0.647E-01  0.464E-02
 15.500  0.490E-01  0.504E-02  0.490E-01  0.504E-02
 15.600  0.426E-01  0.115E-01  0.426E-01  0.115E-01
 15.700  0.465E-01  0.253E-01  0.465E-01  0.253E-01
 15.800  0.456E-01  0.451E-01  0.456E-01  0.451E-01
 15.900  0.316E-01  0.631E-01  0.316E-01  0.631E-01
 16.000  0.157E-01  0.700E-01  0.157E-01  0.700E-01
 16.100  0.163E-01  0.659E-01  0.163E-01  0.659E-01
 16.200  0.401E-01  0.573E-01  0.401E-01  0.573E-01
 16.300  0.734E-01  0.455E-01  0.734E-01  0.455E-01
 16.400  0.934E-01  0.290E-01  0.934E-01  0.290E-01
 16.500  0.904E-01  0.130E-01  0.904E-01  0.130E-01
 16.600  0.765E-01  0.811E-02  0.765E-01  0.811E-02
 16.700  0.664E-01  0.207E-01  0.664E-01  0.207E-01
 16.800  0.625E-01  0.447E-01  0.625E-01  0.447E-01
 16.900  0.629E-01  0.663E-01  0.629E-01  0.663E-01
 17.000  0.667E-01  0.764E-01  0.667E-01  0.764E-01
 17.100  0.680E-01  0.771E-01  0.680E-01  0.771E-01
 17.200  0.592E-01  0.749E-01  0.592E-01  0.749E-01
 17.300  0.417E-01  0.749E-01  0.417E-01  0.749E-01
 17.400  0.234E-01  0.780E-01  0.234E-01  0.780E-01
 17.500  0.123E-01  0.783E-01  0.123E-01  0.783E-01
 17.600  0.127E-01  0.654E-01  0.127E-01  0.654E-01
 17.700  0.226E-01  0.394E-01  0.226E-01  0.394E-01
 17.800  0.366E-01  0.152E-01  0.366E-01  0.152E-01
 17.900  0.534E-01  0.769E-02  0.534E-01  0.769E-02
 18.000  0.734E-01  0.180E-01  0.734E-01  0.180E-01
 18.100  0.893E-01  0.341E-01  0.893E-01  0.341E-01
 18.200  0.880E-01  0.436E-01  0.880E-01  0.436E-01
 18.300  0.662E-01  0.468E-01  0.662E-01  0.468E-01
 18.400  0.422E-01  0.537E-01  0.422E-01  0.537E-01
 18.500  0.378E-01  0.664E-01  0.378E-01  0.664E-01
 18.600  0.498E-01  0.716E-01  0.498E-01  0.716E-01
 18.700  0.547E-01  0.603E-01  0.547E-01  0.603E-01
 18.800  0.425E-01  0.453E-01  0.425E-01  0.453E-01
 18.900  0.268E-01  0.441E-01  0.268E-01  0.441E-01
 19.000  0.195E-01  0.518E-01  0.195E-01  0.518E-01
 19.100  0.184E-01  0.501E-01  0.184E-01  0.501E-01
 19.200  0.220E-01  0.364E-01  0.220E-01  0.364E-01
 19.300  0.344E-01  0.236E-01  0.344E-01  0.236E-01
 19.400  0.504E-01  0.187E-01  0.504E-01  0.187E-01
 19.500  0.535E-01  0.223E-01  0.535E-01  0.223E-01
 19.600  0.377E-01  0.351E-01  0.377E-01  0.351E-01
 19.700  0.155E-01  0.502E-01  0.155E-01  0.502E-01
 19.800  0.101E-02  0.515E-01  0.101E-02  0.515E-01
 19.900 -0.364E-02  0.344E-01 -0.364E-02  0.344E-01
 20.000 -0.376E-02  0.124E-01 -0.376E-02  0.124E-01
 20.100 -0.192E-02 -0.475E-03 -0.192E-02 -0.475E-03
 20.200  0.450E-02 -0.384E-02  0.450E-02 -0.384E-02
 20.300  0.178E-01 -0.357E-02  0.178E-01 -0.357E-02
 20.400  0.326E-01 -0.179E-02  0.326E-01 -0.179E-02
 20.500  0.380E-01  0.463E-02  0.380E-01  0.463E-02
 20.600  0.295E-01  0.180E-01  0.295E-01  0.180E-01
 20.700  0.159E-01  0.327E-01  0.159E-01  0.327E-01
 20.800  0.936E-02  0.373E-01  0.936E-02  0.373E-01
 20.900  0.121E-01  0.279E-01  0.121E-01  0.279E-01
 21.000  0.158E-01  0.144E-01  0.158E-01  0.144E-01
 21.100  0.126E-01  0.877E-02  0.126E-01  0.877E-02
 21.200  0.531E-02  0.122E-01  0.531E-02  0.122E-01
 21.300  0.392E-02  0.157E-01  0.392E-02  0.157E-01
 21.400  0.157E-01  0.126E-01  0.157E-01  0.126E-01
 21.500  0.379E-01  0.621E-02  0.379E-01  0.621E-02
 21.600  0.588E-01  0.427E-02  0.588E-01  0.427E-02
 21.700  0.676E-01  0.969E-02  0.676E-01  0.969E-02
 21.800  0.659E-01  0.205E-01  0.659E-01  0.205E-01
 21.900  0.647E-01  0.346E-01  0.647E-01  0.346E-01
 22.000  0.708E-01  0.500E-01  0.708E-01  0.500E-01
 22.100  0.827E-01  0.632E-01  0.827E-01  0.632E-01
 22.200  0.949E-01  0.723E-01  0.949E-01  0.723E-01
 22.300  0.971E-01  0.798E-01  0.971E-01  0.798E-01
 22.400  0.803E-01  0.887E-01  0.803E-01  0.887E-01
 22.500  0.538E-01  0.980E-01  0.538E-01  0.980E-01
 22.600  0.376E-01  0.998E-01  0.376E-01  0.998E-01
 22.700  0.368E-01  0.853E-01  0.368E-01  0.853E-01
 22.800  0.393E-01  0.612E-01  0.393E-01  0.612E-01
 22.900  0.379E-01  0.449E-01  0.379E-01  0.449E-01
 23.000  0.364E-01  0.413E-01  0.364E-01  0.413E-01
 23.100  0.368E-01  0.400E-01  0.368E-01  0.400E-01
 23.200  0.362E-01  0.367E-01  0.362E-01  0.367E-01
 23.300  0.335E-01  0.375E-01  0.335E-01  0.375E-01
 23.400  0.293E-01  0.418E-01  0.293E-01  0.418E-01
 23.500  0.223E-01  0.411E-01  0.223E-01  0.411E-01
 23.600  0.149E-01  0.331E-01  0.149E-01  0.331E-01
 23.700  0.148E-01  0.235E-01  0.148E-01  0.235E-01
 23.800  0.258E-01  0.177E-01  0.258E-01  0.177E-01
 23.900  0.380E-01  0.181E-01  0.380E-01  0.181E-01
 24.000  0.378E-01  0.264E-01  0.378E-01  0.264E-01
 24.100  0.267E-01  0.376E-01  0.267E-01  0.376E-01
 24.200  0.172E-01  0.396E-01  0.172E-01  0.396E-01
 24.300  0.143E-01  0.291E-01  0.143E-01  0.291E-01
 24.400  0.123E-01  0.173E-01  0.123E-01  0.173E-01
 24.500  0.789E-02  0.136E-01  0.789E-02  0.136E-01
 24.600  0.508E-02  0.140E-01  0.508E-02  0.140E-01
 24.700  0.701E-02  0.113E-01  0.701E-02  0.113E-01
 24.800  0.106E-01  0.675E-02  0.106E-01  0.675E-02
 24.900  0.117E-01  0.627E-02  0.117E-01  0.627E-02
 25.000  0.123E-01  0.997E-02  0.123E-01  0.997E-02
 25.100  0.177E-01  0.124E-01  0.177E-01  0.124E-01
