# E (eV)  dosup(E)   dosdw(E)  pdosup(E)  pdosdw(E)
  5.000 -0.391E-05 -0.216E-05 -0.391E-05 -0.216E-05
  5.100 -0.182E-04 -0.112E-04 -0.182E-04 -0.112E-04
  5.200 -0.602E-04 -0.417E-04 -0.601E-04 -0.417E-04
  5.300 -0.139E-03 -0.109E-03 -0.139E-03 -0.109E-03
  5.400 -0.222E-03 -0.197E-03 -0.222E-03 -0.197E-03
  5.500 -0.247E-03 -0.250E-03 -0.247E-03 -0.249E-03
  5.600 -0.760E-04 -0.180E-03 -0.759E-04 -0.180E-03
  5.700  0.106E-02  0.466E-03  0.106E-02  0.465E-03
  5.800  0.502E-02  0.324E-02  0.502E-02  0.324E-02
  5.900  0.128E-01  0.983E-02  0.127E-01  0.982E-02
  6.000  0.206E-01  0.184E-01  0.206E-01  0.183E-01
  6.100  0.222E-01  0.226E-01  0.222E-01  0.226E-01
  6.200  0.171E-01  0.192E-01  0.171E-01  0.192E-01
  6.300  0.126E-01  0.135E-01  0.126E-01  0.135E-01
  6.400  0.150E-01  0.133E-01  0.150E-01  0.133E-01
  6.500  0.242E-01  0.204E-01  0.242E-01  0.203E-01
  6.600  0.381E-01  0.328E-01  0.381E-01  0.327E-01
  6.700  0.524E-01  0.477E-01  0.523E-01  0.477E-01
  6.800  0.563E-01  0.567E-01  0.562E-01  0.567E-01
  6.900  0.429E-01  0.494E-01  0.429E-01  0.494E-01
  7.000  0.212E-01  0.289E-01  0.211E-01  0.288E-01
  7.100  0.735E-02  0.106E-01  0.734E-02  0.106E-01
  7.200  0.105E-01  0.686E-02  0.105E-01  0.685E-02
  7.300  0.311E-01  0.208E-01  0.310E-01  0.208E-01
  7.400  0.604E-01  0.484E-01  0.603E-01  0.483E-01
  7.500  0.795E-01  0.743E-01  0.794E-01  0.742E-01
  7.600  0.746E-01  0.791E-01  0.745E-01  0.790E-01
  7.700  0.569E-01  0.631E-01  0.568E-01  0.630E-01
  7.800  0.485E-01  0.480E-01  0.484E-01  0.479E-01
  7.900  0.556E-01  0.491E-01  0.555E-01  0.491E-01
  8.000  0.662E-01  0.609E-01  0.661E-01  0.608E-01
  8.100  0.656E-01  0.680E-01  0.655E-01  0.679E-01
  8.200  0.479E-01  0.594E-01  0.479E-01  0.593E-01
  8.300  0.240E-01  0.364E-01  0.240E-01  0.363E-01
  8.400  0.170E-01  0.161E-01  0.170E-01  0.161E-01
  8.500  0.438E-01  0.201E-01  0.437E-01  0.201E-01
  8.600  0.961E-01  0.570E-01  0.959E-01  0.569E-01
  8.700  0.138E+00  0.110E+00  0.137E+00  0.110E+00
  8.800  0.136E+00  0.141E+00  0.136E+00  0.140E+00
  8.900  0.106E+00  0.126E+00  0.105E+00  0.126E+00
  9.000  0.882E-01  0.903E-01  0.880E-01  0.900E-01
  9.100  0.960E-01  0.750E-01  0.957E-01  0.748E-01
  9.200  0.102E+00  0.865E-01  0.102E+00  0.862E-01
  9.300  0.843E-01  0.974E-01  0.840E-01  0.971E-01
  9.400  0.554E-01  0.864E-01  0.552E-01  0.861E-01
  9.500  0.509E-01  0.598E-01  0.507E-01  0.596E-01
  9.600  0.950E-01  0.441E-01  0.946E-01  0.440E-01
  9.700  0.175E+00  0.618E-01  0.174E+00  0.615E-01
  9.800  0.250E+00  0.112E+00  0.249E+00  0.112E+00
  9.900  0.293E+00  0.174E+00  0.291E+00  0.173E+00
 10.000  0.319E+00  0.218E+00  0.317E+00  0.217E+00
 10.100  0.357E+00  0.232E+00  0.356E+00  0.231E+00
 10.200  0.404E+00  0.225E+00  0.402E+00  0.224E+00
 10.300  0.437E+00  0.221E+00  0.435E+00  0.219E+00
 10.400  0.461E+00  0.242E+00  0.458E+00  0.241E+00
 10.500  0.504E+00  0.290E+00  0.500E+00  0.288E+00
 10.600  0.580E+00  0.339E+00  0.576E+00  0.337E+00
 10.700  0.676E+00  0.379E+00  0.671E+00  0.377E+00
 10.800  0.770E+00  0.440E+00  0.765E+00  0.436E+00
 10.900  0.844E+00  0.532E+00  0.838E+00  0.527E+00
 11.000  0.874E+00  0.590E+00  0.867E+00  0.583E+00
 11.100  0.869E+00  0.554E+00  0.861E+00  0.547E+00
 11.200  0.867E+00  0.492E+00  0.858E+00  0.487E+00
 11.300  0.873E+00  0.531E+00  0.863E+00  0.525E+00
 11.400  0.851E+00  0.668E+00  0.840E+00  0.660E+00
 11.500  0.791E+00  0.784E+00  0.780E+00  0.773E+00
 11.600  0.729E+00  0.814E+00  0.718E+00  0.802E+00
 11.700  0.719E+00  0.811E+00  0.708E+00  0.798E+00
 11.800  0.777E+00  0.822E+00  0.765E+00  0.807E+00
 11.900  0.853E+00  0.814E+00  0.841E+00  0.799E+00
 12.000  0.903E+00  0.760E+00  0.892E+00  0.745E+00
 12.100  0.947E+00  0.705E+00  0.936E+00  0.690E+00
 12.200  0.101E+01  0.696E+00  0.998E+00  0.681E+00
 12.300  0.107E+01  0.724E+00  0.105E+01  0.707E+00
 12.400  0.111E+01  0.754E+00  0.109E+01  0.738E+00
 12.500  0.116E+01  0.784E+00  0.114E+01  0.768E+00
 12.600  0.128E+01  0.839E+00  0.126E+01  0.822E+00
 12.700  0.145E+01  0.925E+00  0.143E+01  0.906E+00
 12.800  0.158E+01  0.101E+01  0.156E+01  0.985E+00
 12.900  0.158E+01  0.105E+01  0.156E+01  0.102E+01
 13.000  0.141E+01  0.108E+01  0.139E+01  0.105E+01
 13.100  0.113E+01  0.114E+01  0.112E+01  0.111E+01
 13.200  0.875E+00  0.121E+01  0.869E+00  0.119E+01
 13.300  0.759E+00  0.129E+01  0.753E+00  0.126E+01
 13.400  0.803E+00  0.136E+01  0.793E+00  0.134E+01
 13.500  0.961E+00  0.140E+01  0.945E+00  0.138E+01
 13.600  0.115E+01  0.133E+01  0.113E+01  0.131E+01
 13.700  0.128E+01  0.115E+01  0.126E+01  0.113E+01
 13.800  0.127E+01  0.963E+00  0.125E+01  0.949E+00
 13.900  0.115E+01  0.875E+00  0.114E+01  0.852E+00
 14.000  0.109E+01  0.870E+00  0.108E+01  0.840E+00
 14.100  0.114E+01  0.902E+00  0.113E+01  0.874E+00
 14.200  0.121E+01  0.994E+00  0.121E+01  0.976E+00
 14.300  0.125E+01  0.116E+01  0.125E+01  0.115E+01
 14.400  0.136E+01  0.127E+01  0.135E+01  0.126E+01
 14.500  0.160E+01  0.119E+01  0.160E+01  0.118E+01
 14.600  0.180E+01  0.996E+00  0.180E+01  0.993E+00
 14.700  0.168E+01  0.904E+00  0.168E+01  0.900E+00
 14.800  0.121E+01  0.999E+00  0.120E+01  0.992E+00
 14.900  0.647E+00  0.114E+01  0.638E+00  0.113E+01
 15.000  0.281E+00  0.117E+01  0.270E+00  0.116E+01
 15.100  0.179E+00  0.117E+01  0.169E+00  0.116E+01
 15.200  0.228E+00  0.130E+01  0.221E+00  0.130E+01
 15.300  0.272E+00  0.152E+01  0.268E+00  0.152E+01
 15.400  0.236E+00  0.160E+01  0.233E+00  0.160E+01
 15.500  0.156E+00  0.139E+01  0.154E+00  0.138E+01
 15.600  0.106E+00  0.971E+00  0.101E+00  0.967E+00
 15.700  0.103E+00  0.580E+00  0.932E-01  0.576E+00
 15.800  0.109E+00  0.363E+00  0.918E-01  0.359E+00
 15.900  0.928E-01  0.300E+00  0.686E-01  0.297E+00
 16.000  0.697E-01  0.277E+00  0.396E-01  0.272E+00
 16.100  0.745E-01  0.230E+00  0.405E-01  0.222E+00
 16.200  0.121E+00  0.179E+00  0.867E-01  0.164E+00
 16.300  0.186E+00  0.143E+00  0.154E+00  0.118E+00
 16.400  0.221E+00  0.109E+00  0.195E+00  0.777E-01
 16.500  0.206E+00  0.706E-01  0.187E+00  0.411E-01
 16.600  0.165E+00  0.500E-01  0.153E+00  0.283E-01
 16.700  0.135E+00  0.740E-01  0.125E+00  0.570E-01
 16.800  0.121E+00  0.133E+00  0.111E+00  0.115E+00
 16.900  0.120E+00  0.186E+00  0.107E+00  0.166E+00
 17.000  0.129E+00  0.203E+00  0.109E+00  0.186E+00
 17.100  0.138E+00  0.191E+00  0.109E+00  0.179E+00
 17.200  0.134E+00  0.174E+00  0.941E-01  0.163E+00
 17.300  0.114E+00  0.166E+00  0.668E-01  0.151E+00
 17.400  0.878E-01  0.174E+00  0.394E-01  0.148E+00
 17.500  0.677E-01  0.184E+00  0.235E-01  0.144E+00
 17.600  0.663E-01  0.172E+00  0.244E-01  0.121E+00
 17.700  0.830E-01  0.129E+00  0.378E-01  0.760E-01
 17.800  0.106E+00  0.816E-01  0.551E-01  0.339E-01
 17.900  0.131E+00  0.658E-01  0.753E-01  0.196E-01
 18.000  0.162E+00  0.883E-01  0.101E+00  0.346E-01
 18.100  0.188E+00  0.118E+00  0.125E+00  0.585E-01
 18.200  0.180E+00  0.123E+00  0.124E+00  0.709E-01
 18.300  0.131E+00  0.112E+00  0.939E-01  0.734E-01
 18.400  0.827E-01  0.117E+00  0.594E-01  0.832E-01
 18.500  0.846E-01  0.143E+00  0.526E-01  0.103E+00
 18.600  0.131E+00  0.154E+00  0.700E-01  0.111E+00
 18.700  0.163E+00  0.129E+00  0.783E-01  0.935E-01
 18.800  0.143E+00  0.106E+00  0.617E-01  0.700E-01
 18.900  0.971E-01  0.129E+00  0.384E-01  0.691E-01
 19.000  0.595E-01  0.174E+00  0.260E-01  0.826E-01
 19.100  0.401E-01  0.176E+00  0.232E-01  0.803E-01
 19.200  0.452E-01  0.123E+00  0.277E-01  0.573E-01
 19.300  0.870E-01  0.625E-01  0.443E-01  0.344E-01
 19.400  0.150E+00  0.329E-01  0.658E-01  0.248E-01
 19.500  0.185E+00  0.449E-01  0.710E-01  0.297E-01
 19.600  0.166E+00  0.977E-01  0.518E-01  0.489E-01
 19.700  0.111E+00  0.166E+00  0.234E-01  0.719E-01
 19.800  0.544E-01  0.199E+00  0.394E-02  0.760E-01
 19.900  0.151E-01  0.169E+00 -0.334E-02  0.536E-01
 20.000 -0.604E-02  0.103E+00 -0.447E-02  0.227E-01
 20.100 -0.113E-01  0.412E-01 -0.266E-02  0.270E-02
 20.200  0.467E-02  0.355E-02  0.497E-02 -0.411E-02
 20.300  0.508E-01 -0.123E-01  0.212E-01 -0.488E-02
 20.400  0.118E+00 -0.130E-01  0.401E-01 -0.290E-02
 20.500  0.166E+00  0.674E-02  0.480E-01  0.534E-02
 20.600  0.159E+00  0.579E-01  0.387E-01  0.230E-01
 20.700  0.106E+00  0.129E+00  0.218E-01  0.434E-01
 20.800  0.578E-01  0.174E+00  0.125E-01  0.513E-01
 20.900  0.457E-01  0.158E+00  0.145E-01  0.403E-01
 21.000  0.520E-01  0.996E-01  0.185E-01  0.219E-01
 21.100  0.442E-01  0.556E-01  0.148E-01  0.127E-01
 21.200  0.232E-01  0.485E-01  0.624E-02  0.155E-01
 21.300  0.219E-01  0.515E-01  0.480E-02  0.193E-01
 21.400  0.630E-01  0.382E-01  0.193E-01  0.154E-01
 21.500  0.129E+00  0.211E-01  0.468E-01  0.759E-02
 21.600  0.174E+00  0.314E-01  0.726E-01  0.576E-02
 21.700  0.171E+00  0.748E-01  0.834E-01  0.136E-01
 21.800  0.135E+00  0.122E+00  0.805E-01  0.282E-01
 21.900  0.105E+00  0.141E+00  0.773E-01  0.461E-01
 22.000  0.101E+00  0.130E+00  0.826E-01  0.647E-01
 22.100  0.121E+00  0.112E+00  0.953E-01  0.798E-01
 22.200  0.148E+00  0.106E+00  0.109E+00  0.895E-01
 22.300  0.159E+00  0.113E+00  0.112E+00  0.969E-01
 22.400  0.138E+00  0.130E+00  0.931E-01  0.106E+00
 22.500  0.103E+00  0.151E+00  0.628E-01  0.116E+00
 22.600  0.908E-01  0.160E+00  0.442E-01  0.118E+00
 22.700  0.104E+00  0.146E+00  0.429E-01  0.102E+00
 22.800  0.114E+00  0.120E+00  0.455E-01  0.739E-01
 22.900  0.112E+00  0.110E+00  0.440E-01  0.549E-01
 23.000  0.116E+00  0.116E+00  0.427E-01  0.504E-01
 23.100  0.133E+00  0.116E+00  0.434E-01  0.484E-01
 23.200  0.152E+00  0.110E+00  0.424E-01  0.443E-01
 23.300  0.163E+00  0.125E+00  0.393E-01  0.455E-01
 23.400  0.160E+00  0.158E+00  0.350E-01  0.507E-01
 23.500  0.135E+00  0.175E+00  0.279E-01  0.498E-01
 23.600  0.958E-01  0.161E+00  0.192E-01  0.406E-01
 23.700  0.789E-01  0.136E+00  0.177E-01  0.303E-01
 23.800  0.114E+00  0.113E+00  0.287E-01  0.242E-01
 23.900  0.171E+00  0.103E+00  0.419E-01  0.239E-01
 24.000  0.192E+00  0.123E+00  0.422E-01  0.318E-01
 24.100  0.169E+00  0.167E+00  0.307E-01  0.432E-01
 24.200  0.143E+00  0.189E+00  0.211E-01  0.454E-01
 24.300  0.129E+00  0.163E+00  0.183E-01  0.340E-01
 24.400  0.101E+00  0.129E+00  0.156E-01  0.216E-01
 24.500  0.608E-01  0.121E+00  0.989E-02  0.184E-01
 24.600  0.445E-01  0.118E+00  0.636E-02  0.191E-01
 24.700  0.695E-01  0.882E-01  0.872E-02  0.151E-01
 24.800  0.104E+00  0.540E-01  0.130E-01  0.902E-02
 24.900  0.111E+00  0.572E-01  0.142E-01  0.825E-02
 25.000  0.993E-01  0.931E-01  0.146E-01  0.129E-01
 25.100  0.105E+00  0.116E+00  0.205E-01  0.160E-01
