# Im(k), E-Ef
# k-point    1
   -0.1621    7.0000
   -0.4092    7.0000
   -0.4776    7.0000
   -0.4508    7.0000
   -0.4508    7.0000
   -0.5544    7.0000
   -0.6398    7.0000
   -0.6199    7.0000
   -0.6199    7.0000
   -0.6628    7.0000
   -0.6775    7.0000
   -0.6769    7.0000
   -0.6769    7.0000
   -0.8971    7.0000
   -0.9107    7.0000
   -0.8945    7.0000
   -0.8971    7.0000
   -0.9107    7.0000
   -0.8945    7.0000
   -0.6398    7.0000
   -0.6775    7.0000
   -0.6628    7.0000
   -0.6769    7.0000
   -0.6769    7.0000
   -0.4776    7.0000
   -0.5544    7.0000
   -0.6199    7.0000
   -0.6199    7.0000
   -0.4092    7.0000
   -0.4508    7.0000
   -0.4508    7.0000
   -0.1621    7.0000
   -0.1857    6.8000
   -0.0847    6.8000
   -0.0847    6.8000
   -0.4185    6.8000
   -0.4848    6.8000
   -0.4597    6.8000
   -0.4597    6.8000
   -0.5612    6.8000
   -0.6453    6.8000
   -0.6262    6.8000
   -0.6262    6.8000
   -0.6684    6.8000
   -0.6831    6.8000
   -0.6825    6.8000
   -0.6825    6.8000
   -0.9000    6.8000
   -0.9148    6.8000
   -0.8987    6.8000
   -0.9000    6.8000
   -0.9148    6.8000
   -0.8987    6.8000
   -0.6453    6.8000
   -0.6831    6.8000
   -0.6684    6.8000
   -0.6825    6.8000
   -0.6825    6.8000
   -0.4848    6.8000
   -0.5612    6.8000
   -0.6262    6.8000
   -0.6262    6.8000
   -0.4185    6.8000
   -0.4597    6.8000
   -0.4597    6.8000
   -0.1857    6.8000
   -0.0847    6.8000
   -0.0847    6.8000
   -0.2062    6.6000
   -0.1220    6.6000
   -0.1220    6.6000
   -0.4275    6.6000
   -0.4919    6.6000
   -0.4685    6.6000
   -0.4685    6.6000
   -0.5680    6.6000
   -0.6508    6.6000
   -0.6324    6.6000
   -0.6324    6.6000
   -0.6741    6.6000
   -0.6886    6.6000
   -0.6881    6.6000
   -0.6881    6.6000
   -0.9189    6.6000
   -0.9030    6.6000
   -0.9029    6.6000
   -0.9189    6.6000
   -0.9030    6.6000
   -0.9029    6.6000
   -0.6508    6.6000
   -0.6886    6.6000
   -0.6741    6.6000
   -0.6881    6.6000
   -0.6881    6.6000
   -0.4919    6.6000
   -0.5680    6.6000
   -0.6324    6.6000
   -0.6324    6.6000
   -0.4275    6.6000
   -0.4685    6.6000
   -0.4685    6.6000
   -0.2062    6.6000
   -0.1220    6.6000
   -0.1220    6.6000
   -0.2246    6.4000
   -0.1503    6.4000
   -0.1503    6.4000
   -0.4989    6.4000
   -0.4363    6.4000
   -0.4772    6.4000
   -0.4772    6.4000
   -0.5746    6.4000
   -0.6562    6.4000
   -0.6386    6.4000
   -0.6386    6.4000
   -0.6796    6.4000
   -0.6940    6.4000
   -0.6936    6.4000
   -0.6936    6.4000
   -0.9060    6.4000
   -0.9231    6.4000
   -0.9071    6.4000
   -0.9060    6.4000
   -0.9231    6.4000
   -0.9071    6.4000
   -0.6562    6.4000
   -0.6940    6.4000
   -0.6796    6.4000
   -0.6936    6.4000
   -0.6936    6.4000
   -0.4989    6.4000
   -0.5746    6.4000
   -0.6386    6.4000
   -0.6386    6.4000
   -0.4363    6.4000
   -0.4772    6.4000
   -0.4772    6.4000
   -0.2246    6.4000
   -0.1503    6.4000
   -0.1503    6.4000
   -0.2415    6.2000
   -0.1741    6.2000
   -0.1741    6.2000
   -0.5058    6.2000
   -0.4450    6.2000
   -0.4857    6.2000
   -0.4857    6.2000
   -0.5812    6.2000
   -0.6615    6.2000
   -0.6447    6.2000
   -0.6447    6.2000
   -0.6851    6.2000
   -0.6994    6.2000
   -0.6991    6.2000
   -0.6991    6.2000
   -0.9089    6.2000
   -0.9271    6.2000
   -0.9112    6.2000
   -0.9089    6.2000
   -0.9271    6.2000
   -0.9112    6.2000
   -0.6615    6.2000
   -0.6994    6.2000
   -0.6851    6.2000
   -0.5058    6.2000
   -0.6991    6.2000
   -0.6991    6.2000
   -0.5812    6.2000
   -0.6447    6.2000
   -0.6447    6.2000
   -0.4450    6.2000
   -0.4857    6.2000
   -0.4857    6.2000
   -0.2415    6.2000
   -0.1741    6.2000
   -0.1741    6.2000
    0.5016    6.0000
    0.5016    6.0000
   -0.2571    6.0000
   -0.1950    6.0000
   -0.1950    6.0000
   -0.5125    6.0000
   -0.4534    6.0000
   -0.4940    6.0000
   -0.4940    6.0000
   -0.5877    6.0000
   -0.6668    6.0000
   -0.6507    6.0000
   -0.6507    6.0000
   -0.6906    6.0000
   -0.7048    6.0000
   -0.7045    6.0000
   -0.7045    6.0000
   -0.9119    6.0000
   -0.9119    6.0000
   -0.9312    6.0000
   -0.9312    6.0000
   -0.9154    6.0000
   -0.9154    6.0000
   -0.6668    6.0000
   -0.6906    6.0000
   -0.7048    6.0000
   -0.5125    6.0000
   -0.7045    6.0000
   -0.7045    6.0000
   -0.5877    6.0000
   -0.6507    6.0000
   -0.6507    6.0000
   -0.4534    6.0000
   -0.2571    6.0000
   -0.4940    6.0000
   -0.4940    6.0000
   -0.1950    6.0000
   -0.1950    6.0000
    0.5016    6.0000
    0.5016    6.0000
    0.5121    5.8000
    0.5121    5.8000
   -0.2717    5.8000
   -0.2139    5.8000
   -0.2139    5.8000
   -0.5191    5.8000
   -0.4618    5.8000
   -0.5022    5.8000
   -0.5022    5.8000
   -0.5941    5.8000
   -0.6721    5.8000
   -0.6567    5.8000
   -0.6567    5.8000
   -0.6961    5.8000
   -0.7102    5.8000
   -0.7099    5.8000
   -0.9149    5.8000
   -0.7099    5.8000
   -0.9353    5.8000
   -0.9149    5.8000
   -0.9195    5.8000
   -0.9353    5.8000
   -0.6721    5.8000
   -0.9195    5.8000
   -0.6961    5.8000
   -0.7102    5.8000
   -0.5191    5.8000
   -0.7099    5.8000
   -0.7099    5.8000
   -0.5941    5.8000
   -0.6567    5.8000
   -0.6567    5.8000
   -0.4618    5.8000
   -0.2717    5.8000
   -0.5022    5.8000
   -0.5022    5.8000
   -0.2139    5.8000
   -0.2139    5.8000
    0.5121    5.8000
    0.5121    5.8000
   -0.0247    5.6000
    0.5126    5.6000
    0.5126    5.6000
   -0.2855    5.6000
   -0.2312    5.6000
   -0.2312    5.6000
   -0.5257    5.6000
   -0.4699    5.6000
   -0.5103    5.6000
   -0.5103    5.6000
   -0.6005    5.6000
   -0.6773    5.6000
   -0.6626    5.6000
   -0.6626    5.6000
   -0.7015    5.6000
   -0.7154    5.6000
   -0.9179    5.6000
   -0.9179    5.6000
   -0.9393    5.6000
   -0.7153    5.6000
   -0.9236    5.6000
   -0.7153    5.6000
   -0.6773    5.6000
   -0.9393    5.6000
   -0.7015    5.6000
   -0.9236    5.6000
   -0.7154    5.6000
   -0.7153    5.6000
   -0.7153    5.6000
   -0.5257    5.6000
   -0.6005    5.6000
   -0.6626    5.6000
   -0.6626    5.6000
   -0.4699    5.6000
   -0.2855    5.6000
   -0.5103    5.6000
   -0.5103    5.6000
   -0.2312    5.6000
   -0.2312    5.6000
   -0.0247    5.6000
    0.5126    5.6000
    0.5126    5.6000
   -0.0907    5.4000
    0.5061    5.4000
    0.5061    5.4000
   -0.2987    5.4000
   -0.2473    5.4000
   -0.2473    5.4000
   -0.5321    5.4000
   -0.4780    5.4000
   -0.5183    5.4000
   -0.5183    5.4000
   -0.6068    5.4000
   -0.6825    5.4000
   -0.6685    5.4000
   -0.6685    5.4000
   -0.7068    5.4000
   -0.7207    5.4000
   -0.9209    5.4000
   -0.9209    5.4000
   -0.9433    5.4000
   -0.7206    5.4000
   -0.9277    5.4000
   -0.7206    5.4000
   -0.6825    5.4000
   -0.9433    5.4000
   -0.7068    5.4000
   -0.9277    5.4000
   -0.7207    5.4000
   -0.7206    5.4000
   -0.7206    5.4000
   -0.5321    5.4000
   -0.6068    5.4000
   -0.6685    5.4000
   -0.6685    5.4000
   -0.4780    5.4000
   -0.2987    5.4000
   -0.5183    5.4000
   -0.5183    5.4000
   -0.2473    5.4000
   -0.2473    5.4000
   -0.0907    5.4000
    0.5061    5.4000
    0.5061    5.4000
   -0.1259    5.2000
   -0.3112    5.2000
   -0.2625    5.2000
   -0.2625    5.2000
   -0.5384    5.2000
   -0.4859    5.2000
   -0.5261    5.2000
   -0.5261    5.2000
   -0.6130    5.2000
   -0.6876    5.2000
   -0.6743    5.2000
   -0.6743    5.2000
   -0.7121    5.2000
   -0.7259    5.2000
   -0.9239    5.2000
   -0.7259    5.2000
   -0.9239    5.2000
   -0.7259    5.2000
   -0.9474    5.2000
   -0.9474    5.2000
   -0.9317    5.2000
   -0.9317    5.2000
   -0.6876    5.2000
   -0.7121    5.2000
   -0.7259    5.2000
   -0.7259    5.2000
   -0.7259    5.2000
   -0.5384    5.2000
   -0.6130    5.2000
   -0.6743    5.2000
   -0.6743    5.2000
   -0.4859    5.2000
   -0.3112    5.2000
   -0.5261    5.2000
   -0.5261    5.2000
   -0.2625    5.2000
   -0.2625    5.2000
   -0.1259    5.2000
   -0.1531    5.0000
   -0.3232    5.0000
   -0.2768    5.0000
   -0.2768    5.0000
   -0.5446    5.0000
   -0.4936    5.0000
   -0.5338    5.0000
   -0.5338    5.0000
   -0.6192    5.0000
   -0.6927    5.0000
   -0.6801    5.0000
   -0.6801    5.0000
   -0.7174    5.0000
   -0.9269    5.0000
   -0.7311    5.0000
   -0.7311    5.0000
   -0.9269    5.0000
   -0.7311    5.0000
   -0.9513    5.0000
   -0.9513    5.0000
   -0.9358    5.0000
   -0.9358    5.0000
   -0.6927    5.0000
   -0.7174    5.0000
   -0.7311    5.0000
   -0.7311    5.0000
   -0.7311    5.0000
   -0.5446    5.0000
   -0.6192    5.0000
   -0.6801    5.0000
   -0.6801    5.0000
   -0.4936    5.0000
   -0.3232    5.0000
   -0.5338    5.0000
   -0.5338    5.0000
   -0.2768    5.0000
   -0.2768    5.0000
   -0.1531    5.0000
   -0.1762    4.8000
   -0.3347    4.8000
   -0.2904    4.8000
   -0.2904    4.8000
   -0.5508    4.8000
   -0.5013    4.8000
   -0.5415    4.8000
   -0.5415    4.8000
   -0.6253    4.8000
   -0.6978    4.8000
   -0.6859    4.8000
   -0.6859    4.8000
   -0.7226    4.8000
   -0.7362    4.8000
   -0.9299    4.8000
   -0.7363    4.8000
   -0.9299    4.8000
   -0.7363    4.8000
   -0.9553    4.8000
   -0.9553    4.8000
   -0.9398    4.8000
   -0.9398    4.8000
   -0.6978    4.8000
   -0.7226    4.8000
   -0.7362    4.8000
   -0.7363    4.8000
   -0.7363    4.8000
   -0.5508    4.8000
   -0.6253    4.8000
   -0.6859    4.8000
   -0.6859    4.8000
   -0.5013    4.8000
   -0.3347    4.8000
   -0.5415    4.8000
   -0.5415    4.8000
   -0.2904    4.8000
   -0.2904    4.8000
   -0.1762    4.8000
   -0.1966    4.6000
   -0.3458    4.6000
   -0.3034    4.6000
   -0.3034    4.6000
   -0.5568    4.6000
   -0.5088    4.6000
   -0.5490    4.6000
   -0.5490    4.6000
   -0.6313    4.6000
   -0.7028    4.6000
   -0.6916    4.6000
   -0.6916    4.6000
   -0.7278    4.6000
   -0.7413    4.6000
   -0.9330    4.6000
   -0.7415    4.6000
   -0.9330    4.6000
   -0.7415    4.6000
   -0.9593    4.6000
   -0.9593    4.6000
   -0.9439    4.6000
   -0.9439    4.6000
   -0.7028    4.6000
   -0.7278    4.6000
   -0.7413    4.6000
   -0.7415    4.6000
   -0.7415    4.6000
   -0.5568    4.6000
   -0.6313    4.6000
   -0.6916    4.6000
   -0.6916    4.6000
   -0.5088    4.6000
   -0.3458    4.6000
   -0.5490    4.6000
   -0.5490    4.6000
   -0.3034    4.6000
   -0.3034    4.6000
   -0.1966    4.6000
   -0.2151    4.4000
   -0.3565    4.4000
   -0.3159    4.4000
   -0.3159    4.4000
   -0.5628    4.4000
   -0.5162    4.4000
   -0.5564    4.4000
   -0.5564    4.4000
   -0.6373    4.4000
   -0.7078    4.4000
   -0.6972    4.4000
   -0.6972    4.4000
   -0.7330    4.4000
   -0.7464    4.4000
   -0.9360    4.4000
   -0.7466    4.4000
   -0.9360    4.4000
   -0.7466    4.4000
   -0.9632    4.4000
   -0.9632    4.4000
   -0.9479    4.4000
   -0.9479    4.4000
   -0.7078    4.4000
   -0.7330    4.4000
   -0.7464    4.4000
   -0.7466    4.4000
   -0.7466    4.4000
   -0.5628    4.4000
   -0.6373    4.4000
   -0.6972    4.4000
   -0.6972    4.4000
   -0.5162    4.4000
   -0.3565    4.4000
   -0.5564    4.4000
   -0.5564    4.4000
   -0.3159    4.4000
   -0.3159    4.4000
   -0.2151    4.4000
   -0.2321    4.2000
   -0.3669    4.2000
   -0.3279    4.2000
   -0.3279    4.2000
   -0.5686    4.2000
   -0.5236    4.2000
   -0.5637    4.2000
   -0.5637    4.2000
   -0.6432    4.2000
   -0.7127    4.2000
   -0.7028    4.2000
   -0.7028    4.2000
   -0.7381    4.2000
   -0.7515    4.2000
   -0.9390    4.2000
   -0.7517    4.2000
   -0.9390    4.2000
   -0.7517    4.2000
   -0.9671    4.2000
   -0.9671    4.2000
   -0.9518    4.2000
   -0.9518    4.2000
   -0.7127    4.2000
   -0.7381    4.2000
   -0.7515    4.2000
   -0.7517    4.2000
   -0.7517    4.2000
   -0.5686    4.2000
   -0.6432    4.2000
   -0.7028    4.2000
   -0.7028    4.2000
   -0.5236    4.2000
   -0.3669    4.2000
   -0.5637    4.2000
   -0.5637    4.2000
   -0.3279    4.2000
   -0.3279    4.2000
   -0.2321    4.2000
   -0.2479    4.0000
   -0.3770    4.0000
   -0.3394    4.0000
   -0.3394    4.0000
   -0.5744    4.0000
   -0.5308    4.0000
   -0.5710    4.0000
   -0.5710    4.0000
   -0.6491    4.0000
   -0.7177    4.0000
   -0.7084    4.0000
   -0.7084    4.0000
   -0.7432    4.0000
   -0.7565    4.0000
   -0.9421    4.0000
   -0.7568    4.0000
   -0.7568    4.0000
   -0.9710    4.0000
   -0.9421    4.0000
   -0.9558    4.0000
   -0.9710    4.0000
   -0.9558    4.0000
   -0.7177    4.0000
   -0.7565    4.0000
   -0.7432    4.0000
   -0.7568    4.0000
   -0.7568    4.0000
   -0.5744    4.0000
   -0.6491    4.0000
   -0.7084    4.0000
   -0.7084    4.0000
   -0.5308    4.0000
   -0.3770    4.0000
   -0.5710    4.0000
   -0.5710    4.0000
   -0.3394    4.0000
   -0.3394    4.0000
   -0.2479    4.0000
   -0.2628    3.8000
   -0.3868    3.8000
   -0.3506    3.8000
   -0.3506    3.8000
   -0.5802    3.8000
   -0.5379    3.8000
   -0.5781    3.8000
   -0.5781    3.8000
   -0.6549    3.8000
   -0.7225    3.8000
   -0.7139    3.8000
   -0.7139    3.8000
   -0.7483    3.8000
   -0.7614    3.8000
   -0.9451    3.8000
   -0.7618    3.8000
   -0.7618    3.8000
   -0.9749    3.8000
   -0.9451    3.8000
   -0.9597    3.8000
   -0.9749    3.8000
   -0.9597    3.8000
   -0.7225    3.8000
   -0.7614    3.8000
   -0.7483    3.8000
   -0.7618    3.8000
   -0.7618    3.8000
   -0.7139    3.8000
   -0.7139    3.8000
   -0.6549    3.8000
   -0.5802    3.8000
   -0.5379    3.8000
   -0.3868    3.8000
   -0.5781    3.8000
   -0.5781    3.8000
   -0.3506    3.8000
   -0.3506    3.8000
   -0.2628    3.8000
   -0.0824    3.6000
   -0.2769    3.6000
   -0.3964    3.6000
   -0.3615    3.6000
   -0.3615    3.6000
   -0.5858    3.6000
   -0.5449    3.6000
   -0.5852    3.6000
   -0.5852    3.6000
   -0.6607    3.6000
   -0.7274    3.6000
   -0.7194    3.6000
   -0.7194    3.6000
   -0.7533    3.6000
   -0.7664    3.6000
   -0.9482    3.6000
   -0.7668    3.6000
   -0.7668    3.6000
   -0.9482    3.6000
   -0.9788    3.6000
   -0.9788    3.6000
   -0.9637    3.6000
   -0.9637    3.6000
   -0.7274    3.6000
   -0.7664    3.6000
   -0.7533    3.6000
   -0.7668    3.6000
   -0.7668    3.6000
   -0.7194    3.6000
   -0.7194    3.6000
   -0.6607    3.6000
   -0.5858    3.6000
   -0.5449    3.6000
   -0.3964    3.6000
   -0.5852    3.6000
   -0.5852    3.6000
   -0.3615    3.6000
   -0.3615    3.6000
   -0.2769    3.6000
   -0.0824    3.6000
   -0.1199    3.4000
   -0.2902    3.4000
   -0.4057    3.4000
   -0.3720    3.4000
   -0.3720    3.4000
   -0.5914    3.4000
   -0.5518    3.4000
   -0.5921    3.4000
   -0.5921    3.4000
   -0.6664    3.4000
   -0.7322    3.4000
   -0.7248    3.4000
   -0.7248    3.4000
   -0.7583    3.4000
   -0.7713    3.4000
   -0.9512    3.4000
   -0.7718    3.4000
   -0.7718    3.4000
   -0.9512    3.4000
   -0.9827    3.4000
   -0.9827    3.4000
   -0.9676    3.4000
   -0.9676    3.4000
   -0.7322    3.4000
   -0.7713    3.4000
   -0.7583    3.4000
   -0.7718    3.4000
   -0.7718    3.4000
   -0.7248    3.4000
   -0.7248    3.4000
   -0.6664    3.4000
   -0.5914    3.4000
   -0.5518    3.4000
   -0.4057    3.4000
   -0.5921    3.4000
   -0.5921    3.4000
   -0.3720    3.4000
   -0.3720    3.4000
   -0.2902    3.4000
   -0.1199    3.4000
   -0.1481    3.2000
   -0.3030    3.2000
   -0.4148    3.2000
   -0.3822    3.2000
   -0.3822    3.2000
   -0.5969    3.2000
   -0.5587    3.2000
   -0.5990    3.2000
   -0.5990    3.2000
   -0.6720    3.2000
   -0.7370    3.2000
   -0.7303    3.2000
   -0.7303    3.2000
   -0.7632    3.2000
   -0.7762    3.2000
   -0.9543    3.2000
   -0.7767    3.2000
   -0.7767    3.2000
   -0.9543    3.2000
   -0.9865    3.2000
   -0.9865    3.2000
   -0.9715    3.2000
   -0.9715    3.2000
   -0.7370    3.2000
   -0.7762    3.2000
   -0.7632    3.2000
   -0.7767    3.2000
   -0.7767    3.2000
   -0.7303    3.2000
   -0.7303    3.2000
   -0.6720    3.2000
   -0.5969    3.2000
   -0.5587    3.2000
   -0.4148    3.2000
   -0.5990    3.2000
   -0.5990    3.2000
   -0.3822    3.2000
   -0.3822    3.2000
   -0.3030    3.2000
   -0.1481    3.2000
   -0.1718    3.0000
   -0.3153    3.0000
   -0.4236    3.0000
   -0.3922    3.0000
   -0.3922    3.0000
   -0.6024    3.0000
   -0.5654    3.0000
   -0.6059    3.0000
   -0.6059    3.0000
   -0.6777    3.0000
   -0.7418    3.0000
   -0.7356    3.0000
   -0.7356    3.0000
   -0.7682    3.0000
   -0.7810    3.0000
   -0.9574    3.0000
   -0.7816    3.0000
   -0.7816    3.0000
   -0.9574    3.0000
   -0.9903    3.0000
   -0.9903    3.0000
   -0.9754    3.0000
   -0.9754    3.0000
   -0.7418    3.0000
   -0.7810    3.0000
   -0.7682    3.0000
   -0.7816    3.0000
   -0.7816    3.0000
   -0.7356    3.0000
   -0.7356    3.0000
   -0.6777    3.0000
   -0.6024    3.0000
   -0.5654    3.0000
   -0.4236    3.0000
   -0.6059    3.0000
   -0.6059    3.0000
   -0.3922    3.0000
   -0.3922    3.0000
   -0.3153    3.0000
   -0.1718    3.0000
   -0.1925    2.8000
   -0.4323    2.8000
   -0.3271    2.8000
   -0.4019    2.8000
   -0.4019    2.8000
   -0.6077    2.8000
   -0.5721    2.8000
   -0.6126    2.8000
   -0.6126    2.8000
   -0.6832    2.8000
   -0.7465    2.8000
   -0.7409    2.8000
   -0.7409    2.8000
   -0.7731    2.8000
   -0.7858    2.8000
   -0.9604    2.8000
   -0.7865    2.8000
   -0.7865    2.8000
   -0.9604    2.8000
   -0.9942    2.8000
   -0.9942    2.8000
   -0.9793    2.8000
   -0.9793    2.8000
   -0.7465    2.8000
   -0.7858    2.8000
   -0.7731    2.8000
   -0.7865    2.8000
   -0.7865    2.8000
   -0.7409    2.8000
   -0.7409    2.8000
   -0.6832    2.8000
   -0.6077    2.8000
   -0.5721    2.8000
   -0.4323    2.8000
   -0.6126    2.8000
   -0.6126    2.8000
   -0.4019    2.8000
   -0.4019    2.8000
   -0.3271    2.8000
   -0.1925    2.8000
   -0.2113    2.6000
   -0.4408    2.6000
   -0.3385    2.6000
   -0.4114    2.6000
   -0.4114    2.6000
   -0.6131    2.6000
   -0.5787    2.6000
   -0.6193    2.6000
   -0.6193    2.6000
   -0.6888    2.6000
   -0.7512    2.6000
   -0.7462    2.6000
   -0.7462    2.6000
   -0.7779    2.6000
   -0.7906    2.6000
   -0.9635    2.6000
   -0.7913    2.6000
   -0.7913    2.6000
   -0.9635    2.6000
   -0.9980    2.6000
   -0.9980    2.6000
   -0.9831    2.6000
   -0.9831    2.6000
   -0.7512    2.6000
   -0.7906    2.6000
   -0.7779    2.6000
   -0.7913    2.6000
   -0.7913    2.6000
   -0.7462    2.6000
   -0.7462    2.6000
   -0.6888    2.6000
   -0.6131    2.6000
   -0.5787    2.6000
   -0.4408    2.6000
   -0.6193    2.6000
   -0.6193    2.6000
   -0.3385    2.6000
   -0.4114    2.6000
   -0.4114    2.6000
   -0.2113    2.6000
   -0.0371    2.4000
   -0.2285    2.4000
   -0.4491    2.4000
   -0.3495    2.4000
   -0.4207    2.4000
   -0.4207    2.4000
   -0.6183    2.4000
   -0.5852    2.4000
   -0.6259    2.4000
   -0.6259    2.4000
   -0.6942    2.4000
   -0.7559    2.4000
   -0.7515    2.4000
   -0.7515    2.4000
   -0.7827    2.4000
   -0.7954    2.4000
   -0.9666    2.4000
   -0.7962    2.4000
   -0.9666    2.4000
   -0.7962    2.4000
   -0.9869    2.4000
   -0.9869    2.4000
   -0.7559    2.4000
   -0.7954    2.4000
   -0.7827    2.4000
   -0.7962    2.4000
   -0.7962    2.4000
   -0.6183    2.4000
   -0.7515    2.4000
   -0.7515    2.4000
   -0.6942    2.4000
   -0.5852    2.4000
   -0.4491    2.4000
   -0.6259    2.4000
   -0.6259    2.4000
   -0.4207    2.4000
   -0.4207    2.4000
   -0.3495    2.4000
   -0.2285    2.4000
   -0.0371    2.4000
   -0.0962    2.2000
   -0.2445    2.2000
   -0.3602    2.2000
   -0.4572    2.2000
   -0.4298    2.2000
   -0.4298    2.2000
   -0.6235    2.2000
   -0.5917    2.2000
   -0.6324    2.2000
   -0.6324    2.2000
   -0.6997    2.2000
   -0.7606    2.2000
   -0.7567    2.2000
   -0.7567    2.2000
   -0.7875    2.2000
   -0.8001    2.2000
   -0.9697    2.2000
   -0.8009    2.2000
   -0.9697    2.2000
   -0.8009    2.2000
   -0.9908    2.2000
   -0.9908    2.2000
   -0.7606    2.2000
   -0.8001    2.2000
   -0.7875    2.2000
   -0.8009    2.2000
   -0.8009    2.2000
   -0.6235    2.2000
   -0.7567    2.2000
   -0.7567    2.2000
   -0.6997    2.2000
   -0.5917    2.2000
   -0.4572    2.2000
   -0.6324    2.2000
   -0.6324    2.2000
   -0.4298    2.2000
   -0.4298    2.2000
   -0.3602    2.2000
   -0.2445    2.2000
   -0.0962    2.2000
   -0.1307    2.0000
   -0.2595    2.0000
   -0.4652    2.0000
   -0.3706    2.0000
   -0.4387    2.0000
   -0.4387    2.0000
   -0.6286    2.0000
   -0.5980    2.0000
   -0.6389    2.0000
   -0.6389    2.0000
   -0.7051    2.0000
   -0.7652    2.0000
   -0.7619    2.0000
   -0.7619    2.0000
   -0.7923    2.0000
   -0.8048    2.0000
   -0.9728    2.0000
   -0.8057    2.0000
   -0.9728    2.0000
   -0.8057    2.0000
   -0.9946    2.0000
   -0.9946    2.0000
   -0.7652    2.0000
   -0.8048    2.0000
   -0.7923    2.0000
   -0.8057    2.0000
   -0.8057    2.0000
   -0.7619    2.0000
   -0.7619    2.0000
   -0.6286    2.0000
   -0.7051    2.0000
   -0.5980    2.0000
   -0.4652    2.0000
   -0.6389    2.0000
   -0.6389    2.0000
   -0.4387    2.0000
   -0.4387    2.0000
   -0.3706    2.0000
   -0.2595    2.0000
   -0.1307    2.0000
   -0.1577    1.8000
   -0.2736    1.8000
   -0.4731    1.8000
   -0.3807    1.8000
   -0.4474    1.8000
   -0.4474    1.8000
   -0.6337    1.8000
   -0.6044    1.8000
   -0.6453    1.8000
   -0.6453    1.8000
   -0.7104    1.8000
   -0.7698    1.8000
   -0.7671    1.8000
   -0.7671    1.8000
   -0.7971    1.8000
   -0.8095    1.8000
   -0.9758    1.8000
   -0.8105    1.8000
   -0.9758    1.8000
   -0.8105    1.8000
   -0.9984    1.8000
   -0.9984    1.8000
   -0.7698    1.8000
   -0.8095    1.8000
   -0.7971    1.8000
   -0.8105    1.8000
   -0.8105    1.8000
   -0.6337    1.8000
   -0.7671    1.8000
   -0.7671    1.8000
   -0.7104    1.8000
   -0.6044    1.8000
   -0.4731    1.8000
   -0.6453    1.8000
   -0.6453    1.8000
   -0.3807    1.8000
   -0.4474    1.8000
   -0.4474    1.8000
   -0.2736    1.8000
   -0.1577    1.8000
   -0.1806    1.6000
   -0.2871    1.6000
   -0.3905    1.6000
   -0.4808    1.6000
   -0.4560    1.6000
   -0.4560    1.6000
   -0.6388    1.6000
   -0.6106    1.6000
   -0.6517    1.6000
   -0.6517    1.6000
   -0.7157    1.6000
   -0.7744    1.6000
   -0.7722    1.6000
   -0.7722    1.6000
   -0.8018    1.6000
   -0.8141    1.6000
   -0.9789    1.6000
   -0.8152    1.6000
   -0.9789    1.6000
   -0.8152    1.6000
   -0.7744    1.6000
   -0.8141    1.6000
   -0.8018    1.6000
   -0.8152    1.6000
   -0.8152    1.6000
   -0.7722    1.6000
   -0.7722    1.6000
   -0.6388    1.6000
   -0.7157    1.6000
   -0.6106    1.6000
   -0.4808    1.6000
   -0.6517    1.6000
   -0.6517    1.6000
   -0.3905    1.6000
   -0.4560    1.6000
   -0.4560    1.6000
   -0.2871    1.6000
   -0.1806    1.6000
   -0.2008    1.4000
   -0.3000    1.4000
   -0.4001    1.4000
   -0.4883    1.4000
   -0.4644    1.4000
   -0.4644    1.4000
   -0.6437    1.4000
   -0.6168    1.4000
   -0.6580    1.4000
   -0.6580    1.4000
   -0.7210    1.4000
   -0.7789    1.4000
   -0.7773    1.4000
   -0.7773    1.4000
   -0.8065    1.4000
   -0.8187    1.4000
   -0.9820    1.4000
   -0.8199    1.4000
   -0.9820    1.4000
   -0.8199    1.4000
   -0.7789    1.4000
   -0.8187    1.4000
   -0.8065    1.4000
   -0.8199    1.4000
   -0.8199    1.4000
   -0.7773    1.4000
   -0.7773    1.4000
   -0.6437    1.4000
   -0.7210    1.4000
   -0.6168    1.4000
   -0.4883    1.4000
   -0.6580    1.4000
   -0.6580    1.4000
   -0.4001    1.4000
   -0.4644    1.4000
   -0.4644    1.4000
   -0.3000    1.4000
   -0.2008    1.4000
   -0.2191    1.2000
   -0.3124    1.2000
   -0.4958    1.2000
   -0.4095    1.2000
   -0.4726    1.2000
   -0.4726    1.2000
   -0.6487    1.2000
   -0.6229    1.2000
   -0.6642    1.2000
   -0.6642    1.2000
   -0.7263    1.2000
   -0.7835    1.2000
   -0.7823    1.2000
   -0.7823    1.2000
   -0.8111    1.2000
   -0.8233    1.2000
   -0.9851    1.2000
   -0.8245    1.2000
   -0.9851    1.2000
   -0.8245    1.2000
   -0.7835    1.2000
   -0.8233    1.2000
   -0.8111    1.2000
   -0.8245    1.2000
   -0.8245    1.2000
   -0.6487    1.2000
   -0.7823    1.2000
   -0.7823    1.2000
   -0.7263    1.2000
   -0.6229    1.2000
   -0.4958    1.2000
   -0.6642    1.2000
   -0.6642    1.2000
   -0.4095    1.2000
   -0.4726    1.2000
   -0.4726    1.2000
   -0.2191    1.2000
   -0.3124    1.2000
   -0.2359    1.0000
   -0.3242    1.0000
   -0.5031    1.0000
   -0.4186    1.0000
   -0.4807    1.0000
   -0.4807    1.0000
   -0.6536    1.0000
   -0.6290    1.0000
   -0.6704    1.0000
   -0.6704    1.0000
   -0.7314    1.0000
   -0.7880    1.0000
   -0.7874    1.0000
   -0.7874    1.0000
   -0.8158    1.0000
   -0.8279    1.0000
   -0.9883    1.0000
   -0.8291    1.0000
   -0.9883    1.0000
   -0.8291    1.0000
   -0.7880    1.0000
   -0.8279    1.0000
   -0.8158    1.0000
   -0.8291    1.0000
   -0.8291    1.0000
   -0.6536    1.0000
   -0.7874    1.0000
   -0.7874    1.0000
   -0.7314    1.0000
   -0.6290    1.0000
   -0.5031    1.0000
   -0.6704    1.0000
   -0.6704    1.0000
   -0.4807    1.0000
   -0.4807    1.0000
   -0.4186    1.0000
   -0.2359    1.0000
   -0.3242    1.0000
   -0.2515    0.8000
   -0.3357    0.8000
   -0.5103    0.8000
   -0.4276    0.8000
   -0.4887    0.8000
   -0.4887    0.8000
   -0.6584    0.8000
   -0.6350    0.8000
   -0.6765    0.8000
   -0.6765    0.8000
   -0.7366    0.8000
   -0.7924    0.8000
   -0.7923    0.8000
   -0.7923    0.8000
   -0.8204    0.8000
   -0.8324    0.8000
   -0.9914    0.8000
   -0.8338    0.8000
   -0.9914    0.8000
   -0.8338    0.8000
   -0.8324    0.8000
   -0.8204    0.8000
   -0.7924    0.8000
   -0.8338    0.8000
   -0.8338    0.8000
   -0.6584    0.8000
   -0.7923    0.8000
   -0.7923    0.8000
   -0.7366    0.8000
   -0.6350    0.8000
   -0.5103    0.8000
   -0.6765    0.8000
   -0.6765    0.8000
   -0.4276    0.8000
   -0.4887    0.8000
   -0.4887    0.8000
   -0.2515    0.8000
   -0.3357    0.8000
    0.5250    0.6000
   -0.2662    0.6000
   -0.3468    0.6000
   -0.5174    0.6000
   -0.4363    0.6000
   -0.4965    0.6000
   -0.4965    0.6000
   -0.6632    0.6000
   -0.6409    0.6000
   -0.6825    0.6000
   -0.6825    0.6000
   -0.7417    0.6000
   -0.7969    0.6000
   -0.7973    0.6000
   -0.7973    0.6000
   -0.8370    0.6000
   -0.8250    0.6000
   -0.9945    0.6000
   -0.9945    0.6000
   -0.8383    0.6000
   -0.8383    0.6000
   -0.7969    0.6000
   -0.8370    0.6000
   -0.8250    0.6000
   -0.8383    0.6000
   -0.8383    0.6000
   -0.6632    0.6000
   -0.7973    0.6000
   -0.7973    0.6000
   -0.7417    0.6000
   -0.6409    0.6000
   -0.5174    0.6000
   -0.6825    0.6000
   -0.6825    0.6000
   -0.2662    0.6000
   -0.4363    0.6000
   -0.4965    0.6000
   -0.4965    0.6000
   -0.3468    0.6000
    0.5250    0.6000
    0.5345    0.4000
   -0.2801    0.4000
   -0.3575    0.4000
   -0.5244    0.4000
   -0.4449    0.4000
   -0.5042    0.4000
   -0.5042    0.4000
   -0.6679    0.4000
   -0.6468    0.4000
   -0.6886    0.4000
   -0.6886    0.4000
   -0.7468    0.4000
   -0.8013    0.4000
   -0.8022    0.4000
   -0.8022    0.4000
   -0.8414    0.4000
   -0.8295    0.4000
   -0.9976    0.4000
   -0.9976    0.4000
   -0.8429    0.4000
   -0.8429    0.4000
   -0.8013    0.4000
   -0.8414    0.4000
   -0.8295    0.4000
   -0.8429    0.4000
   -0.8429    0.4000
   -0.6679    0.4000
   -0.8022    0.4000
   -0.8022    0.4000
   -0.7468    0.4000
   -0.6468    0.4000
   -0.5244    0.4000
   -0.6886    0.4000
   -0.6886    0.4000
   -0.2801    0.4000
   -0.4449    0.4000
   -0.5042    0.4000
   -0.5042    0.4000
   -0.3575    0.4000
    0.5345    0.4000
    0.5404    0.2000
   -0.2933    0.2000
   -0.3679    0.2000
   -0.4533    0.2000
   -0.5313    0.2000
   -0.5119    0.2000
   -0.5119    0.2000
   -0.6726    0.2000
   -0.6526    0.2000
   -0.6945    0.2000
   -0.6945    0.2000
   -0.7519    0.2000
   -0.8058    0.2000
   -0.8072    0.2000
   -0.8072    0.2000
   -0.8459    0.2000
   -0.8340    0.2000
   -0.8474    0.2000
   -0.8474    0.2000
   -0.8058    0.2000
   -0.8459    0.2000
   -0.8340    0.2000
   -0.8474    0.2000
   -0.8474    0.2000
   -0.6726    0.2000
   -0.8072    0.2000
   -0.8072    0.2000
   -0.7519    0.2000
   -0.6526    0.2000
   -0.6945    0.2000
   -0.6945    0.2000
   -0.5313    0.2000
   -0.2933    0.2000
   -0.4533    0.2000
   -0.3679    0.2000
   -0.5119    0.2000
   -0.5119    0.2000
    0.5404    0.2000
    0.5439    0.0000
   -0.3059    0.0000
   -0.3780    0.0000
   -0.5380    0.0000
   -0.4616    0.0000
   -0.5193    0.0000
   -0.5193    0.0000
   -0.6773    0.0000
   -0.6584    0.0000
   -0.7004    0.0000
   -0.7004    0.0000
   -0.7569    0.0000
   -0.8101    0.0000
   -0.8120    0.0000
   -0.8120    0.0000
   -0.8504    0.0000
   -0.8386    0.0000
   -0.8520    0.0000
   -0.8520    0.0000
   -0.8101    0.0000
   -0.8504    0.0000
   -0.8386    0.0000
   -0.8520    0.0000
   -0.8520    0.0000
   -0.6773    0.0000
   -0.8120    0.0000
   -0.8120    0.0000
   -0.7569    0.0000
   -0.6584    0.0000
   -0.7004    0.0000
   -0.7004    0.0000
   -0.5380    0.0000
   -0.3059    0.0000
   -0.4616    0.0000
   -0.3780    0.0000
   -0.5193    0.0000
   -0.5193    0.0000
    0.5439    0.0000
    0.5458   -0.2000
   -0.3180   -0.2000
   -0.3879   -0.2000
   -0.5447   -0.2000
   -0.4697   -0.2000
   -0.5267   -0.2000
   -0.5267   -0.2000
   -0.6819   -0.2000
   -0.6641   -0.2000
   -0.7063   -0.2000
   -0.7063   -0.2000
   -0.7619   -0.2000
   -0.8145   -0.2000
   -0.8169   -0.2000
   -0.8169   -0.2000
   -0.8430   -0.2000
   -0.8548   -0.2000
   -0.8565   -0.2000
   -0.8565   -0.2000
   -0.8145   -0.2000
   -0.8548   -0.2000
   -0.8430   -0.2000
   -0.8565   -0.2000
   -0.8565   -0.2000
   -0.6819   -0.2000
   -0.8169   -0.2000
   -0.8169   -0.2000
   -0.7619   -0.2000
   -0.6641   -0.2000
   -0.7063   -0.2000
   -0.7063   -0.2000
   -0.5447   -0.2000
   -0.3180   -0.2000
   -0.4697   -0.2000
   -0.3879   -0.2000
   -0.5267   -0.2000
   -0.5267   -0.2000
    0.5458   -0.2000
    0.5460   -0.4000
   -0.3296   -0.4000
   -0.3975   -0.4000
   -0.5513   -0.4000
   -0.4777   -0.4000
   -0.5340   -0.4000
   -0.5340   -0.4000
   -0.6865   -0.4000
   -0.6698   -0.4000
   -0.7121   -0.4000
   -0.7121   -0.4000
   -0.7668   -0.4000
   -0.8189   -0.4000
   -0.8217   -0.4000
   -0.8217   -0.4000
   -0.8475   -0.4000
   -0.8592   -0.4000
   -0.8609   -0.4000
   -0.8609   -0.4000
   -0.8189   -0.4000
   -0.8592   -0.4000
   -0.8475   -0.4000
   -0.8609   -0.4000
   -0.8609   -0.4000
   -0.6865   -0.4000
   -0.8217   -0.4000
   -0.8217   -0.4000
   -0.7668   -0.4000
   -0.6698   -0.4000
   -0.7121   -0.4000
   -0.7121   -0.4000
   -0.5513   -0.4000
   -0.3296   -0.4000
   -0.4777   -0.4000
   -0.3975   -0.4000
   -0.5340   -0.4000
   -0.5340   -0.4000
    0.5460   -0.4000
    0.5447   -0.6000
   -0.0878   -0.6000
   -0.0878   -0.6000
   -0.3408   -0.6000
   -0.4069   -0.6000
   -0.5578   -0.6000
   -0.4856   -0.6000
   -0.5412   -0.6000
   -0.5412   -0.6000
   -0.6911   -0.6000
   -0.6755   -0.6000
   -0.7179   -0.6000
   -0.7179   -0.6000
   -0.8232   -0.6000
   -0.7718   -0.6000
   -0.8265   -0.6000
   -0.8265   -0.6000
   -0.8519   -0.6000
   -0.8636   -0.6000
   -0.8654   -0.6000
   -0.8232   -0.6000
   -0.8654   -0.6000
   -0.8636   -0.6000
   -0.8519   -0.6000
   -0.8654   -0.6000
   -0.8654   -0.6000
   -0.6911   -0.6000
   -0.8265   -0.6000
   -0.8265   -0.6000
   -0.7718   -0.6000
   -0.6755   -0.6000
   -0.7179   -0.6000
   -0.7179   -0.6000
   -0.5578   -0.6000
   -0.3408   -0.6000
   -0.4856   -0.6000
   -0.4069   -0.6000
   -0.5412   -0.6000
   -0.5412   -0.6000
    0.5447   -0.6000
   -0.0878   -0.6000
   -0.0878   -0.6000
    0.5414   -0.8000
   -0.1263   -0.8000
   -0.1263   -0.8000
   -0.3516   -0.8000
   -0.4161   -0.8000
   -0.5642   -0.8000
   -0.4933   -0.8000
   -0.5483   -0.8000
   -0.5483   -0.8000
   -0.6956   -0.8000
   -0.6810   -0.8000
   -0.7236   -0.8000
   -0.7236   -0.8000
   -0.8275   -0.8000
   -0.7766   -0.8000
   -0.8313   -0.8000
   -0.8313   -0.8000
   -0.8564   -0.8000
   -0.8679   -0.8000
   -0.8698   -0.8000
   -0.8275   -0.8000
   -0.8698   -0.8000
   -0.8679   -0.8000
   -0.8564   -0.8000
   -0.8698   -0.8000
   -0.8698   -0.8000
   -0.6956   -0.8000
   -0.8313   -0.8000
   -0.8313   -0.8000
   -0.7766   -0.8000
   -0.6810   -0.8000
   -0.7236   -0.8000
   -0.7236   -0.8000
   -0.5642   -0.8000
   -0.3516   -0.8000
   -0.4933   -0.8000
   -0.4161   -0.8000
   -0.5483   -0.8000
   -0.5483   -0.8000
    0.5414   -0.8000
   -0.1263   -0.8000
   -0.1263   -0.8000
    0.5358   -1.0000
   -0.1556   -1.0000
   -0.1556   -1.0000
   -0.3621   -1.0000
   -0.4251   -1.0000
   -0.5706   -1.0000
   -0.5009   -1.0000
   -0.5553   -1.0000
   -0.5553   -1.0000
   -0.7001   -1.0000
   -0.6866   -1.0000
   -0.7293   -1.0000
   -0.7293   -1.0000
   -0.7815   -1.0000
   -0.8318   -1.0000
   -0.8360   -1.0000
   -0.8360   -1.0000
   -0.8607   -1.0000
   -0.8723   -1.0000
   -0.8742   -1.0000
   -0.8318   -1.0000
   -0.8742   -1.0000
   -0.8723   -1.0000
   -0.8607   -1.0000
   -0.8742   -1.0000
   -0.8742   -1.0000
   -0.7001   -1.0000
   -0.8360   -1.0000
   -0.8360   -1.0000
   -0.7815   -1.0000
   -0.6866   -1.0000
   -0.7293   -1.0000
   -0.7293   -1.0000
   -0.5706   -1.0000
   -0.3621   -1.0000
   -0.4251   -1.0000
   -0.5009   -1.0000
   -0.5553   -1.0000
   -0.5553   -1.0000
    0.5358   -1.0000
   -0.1556   -1.0000
   -0.1556   -1.0000
    0.5261   -1.2000
   -0.3722   -1.2000
   -0.1802   -1.2000
   -0.1802   -1.2000
   -0.4339   -1.2000
   -0.5768   -1.2000
   -0.5084   -1.2000
   -0.5622   -1.2000
   -0.5622   -1.2000
   -0.7045   -1.2000
   -0.6921   -1.2000
   -0.7349   -1.2000
   -0.7349   -1.2000
   -0.8361   -1.2000
   -0.7863   -1.2000
   -0.8407   -1.2000
   -0.8407   -1.2000
   -0.8766   -1.2000
   -0.8651   -1.2000
   -0.8786   -1.2000
   -0.8361   -1.2000
   -0.8786   -1.2000
   -0.8766   -1.2000
   -0.8651   -1.2000
   -0.8786   -1.2000
   -0.8786   -1.2000
   -0.7045   -1.2000
   -0.8407   -1.2000
   -0.8407   -1.2000
   -0.7863   -1.2000
   -0.6921   -1.2000
   -0.5768   -1.2000
   -0.7349   -1.2000
   -0.7349   -1.2000
   -0.3722   -1.2000
   -0.4339   -1.2000
   -0.5084   -1.2000
   -0.5622   -1.2000
   -0.5622   -1.2000
    0.5261   -1.2000
   -0.1802   -1.2000
   -0.1802   -1.2000
   -0.3821   -1.4000
   -0.2018   -1.4000
   -0.2018   -1.4000
   -0.4425   -1.4000
   -0.5830   -1.4000
   -0.5158   -1.4000
   -0.5691   -1.4000
   -0.5691   -1.4000
   -0.7089   -1.4000
   -0.6975   -1.4000
   -0.7405   -1.4000
   -0.7405   -1.4000
   -0.8403   -1.4000
   -0.7911   -1.4000
   -0.8454   -1.4000
   -0.8454   -1.4000
   -0.8695   -1.4000
   -0.8809   -1.4000
   -0.8830   -1.4000
   -0.8830   -1.4000
   -0.8403   -1.4000
   -0.8809   -1.4000
   -0.8695   -1.4000
   -0.8830   -1.4000
   -0.8830   -1.4000
   -0.7089   -1.4000
   -0.8454   -1.4000
   -0.8454   -1.4000
   -0.7911   -1.4000
   -0.6975   -1.4000
   -0.5830   -1.4000
   -0.7405   -1.4000
   -0.7405   -1.4000
   -0.3821   -1.4000
   -0.4425   -1.4000
   -0.5158   -1.4000
   -0.5691   -1.4000
   -0.5691   -1.4000
   -0.2018   -1.4000
   -0.2018   -1.4000
   -0.3917   -1.6000
   -0.2213   -1.6000
   -0.2213   -1.6000
   -0.4509   -1.6000
   -0.5891   -1.6000
   -0.5231   -1.6000
   -0.5758   -1.6000
   -0.5758   -1.6000
   -0.7133   -1.6000
   -0.7029   -1.6000
   -0.7461   -1.6000
   -0.7461   -1.6000
   -0.8446   -1.6000
   -0.7959   -1.6000
   -0.8501   -1.6000
   -0.8501   -1.6000
   -0.8738   -1.6000
   -0.8851   -1.6000
   -0.8873   -1.6000
   -0.8873   -1.6000
   -0.8446   -1.6000
   -0.8851   -1.6000
   -0.8738   -1.6000
   -0.8873   -1.6000
   -0.8873   -1.6000
   -0.7133   -1.6000
   -0.8501   -1.6000
   -0.8501   -1.6000
   -0.7959   -1.6000
   -0.7029   -1.6000
   -0.5891   -1.6000
   -0.7461   -1.6000
   -0.7461   -1.6000
   -0.3917   -1.6000
   -0.4509   -1.6000
   -0.5231   -1.6000
   -0.5758   -1.6000
   -0.5758   -1.6000
   -0.2213   -1.6000
   -0.2213   -1.6000
   -0.4011   -1.8000
   -0.2392   -1.8000
   -0.2392   -1.8000
   -0.4592   -1.8000
   -0.5951   -1.8000
   -0.5303   -1.8000
   -0.5825   -1.8000
   -0.5825   -1.8000
   -0.7177   -1.8000
   -0.7083   -1.8000
   -0.7516   -1.8000
   -0.7516   -1.8000
   -0.8488   -1.8000
   -0.8006   -1.8000
   -0.8547   -1.8000
   -0.8547   -1.8000
   -0.8894   -1.8000
   -0.8781   -1.8000
   -0.8916   -1.8000
   -0.8916   -1.8000
   -0.8488   -1.8000
   -0.8894   -1.8000
   -0.8781   -1.8000
   -0.8916   -1.8000
   -0.8916   -1.8000
   -0.7177   -1.8000
   -0.8547   -1.8000
   -0.8547   -1.8000
   -0.8006   -1.8000
   -0.7083   -1.8000
   -0.5951   -1.8000
   -0.7516   -1.8000
   -0.7516   -1.8000
   -0.4011   -1.8000
   -0.4592   -1.8000
   -0.5303   -1.8000
   -0.5825   -1.8000
   -0.5825   -1.8000
   -0.2392   -1.8000
   -0.2392   -1.8000
   -0.4102   -2.0000
   -0.2559   -2.0000
   -0.2559   -2.0000
   -0.4674   -2.0000
   -0.6011   -2.0000
   -0.5374   -2.0000
   -0.5891   -2.0000
   -0.5891   -2.0000
   -0.7220   -2.0000
   -0.7136   -2.0000
   -0.7570   -2.0000
   -0.7570   -2.0000
   -0.8530   -2.0000
   -0.8054   -2.0000
   -0.8593   -2.0000
   -0.8593   -2.0000
   -0.8936   -2.0000
   -0.8824   -2.0000
   -0.8960   -2.0000
   -0.8960   -2.0000
   -0.8530   -2.0000
   -0.8936   -2.0000
   -0.8824   -2.0000
   -0.8960   -2.0000
   -0.8960   -2.0000
   -0.7220   -2.0000
   -0.8593   -2.0000
   -0.8593   -2.0000
   -0.8054   -2.0000
   -0.7136   -2.0000
   -0.6011   -2.0000
   -0.7570   -2.0000
   -0.7570   -2.0000
   -0.4102   -2.0000
   -0.4674   -2.0000
   -0.5374   -2.0000
   -0.5891   -2.0000
   -0.5891   -2.0000
   -0.2559   -2.0000
   -0.2559   -2.0000
   -0.4191   -2.2000
   -0.2715   -2.2000
   -0.2715   -2.2000
   -0.4754   -2.2000
   -0.6070   -2.2000
   -0.5444   -2.2000
   -0.5956   -2.2000
   -0.5956   -2.2000
   -0.7263   -2.2000
   -0.7189   -2.2000
   -0.7625   -2.2000
   -0.7625   -2.2000
   -0.8572   -2.2000
   -0.8100   -2.2000
   -0.8639   -2.2000
   -0.8639   -2.2000
   -0.8866   -2.2000
   -0.8978   -2.2000
   -0.9002   -2.2000
   -0.9002   -2.2000
   -0.8572   -2.2000
   -0.8978   -2.2000
   -0.8866   -2.2000
   -0.9002   -2.2000
   -0.9002   -2.2000
   -0.7263   -2.2000
   -0.8639   -2.2000
   -0.8639   -2.2000
   -0.8100   -2.2000
   -0.7189   -2.2000
   -0.6070   -2.2000
   -0.7625   -2.2000
   -0.7625   -2.2000
   -0.4191   -2.2000
   -0.4754   -2.2000
   -0.5444   -2.2000
   -0.5956   -2.2000
   -0.5956   -2.2000
   -0.2715   -2.2000
   -0.2715   -2.2000
   -0.4279   -2.4000
   -0.2863   -2.4000
   -0.2863   -2.4000
   -0.4833   -2.4000
   -0.6128   -2.4000
   -0.5513   -2.4000
   -0.6021   -2.4000
   -0.6021   -2.4000
   -0.7306   -2.4000
   -0.7242   -2.4000
   -0.7678   -2.4000
   -0.7678   -2.4000
   -0.8614   -2.4000
   -0.8147   -2.4000
   -0.8685   -2.4000
   -0.8685   -2.4000
   -0.9020   -2.4000
   -0.8909   -2.4000
   -0.8614   -2.4000
   -0.9045   -2.4000
   -0.9020   -2.4000
   -0.9045   -2.4000
   -0.8909   -2.4000
   -0.9045   -2.4000
   -0.9045   -2.4000
   -0.7306   -2.4000
   -0.8685   -2.4000
   -0.8685   -2.4000
   -0.8147   -2.4000
   -0.7242   -2.4000
   -0.6128   -2.4000
   -0.7678   -2.4000
   -0.7678   -2.4000
   -0.4279   -2.4000
   -0.4833   -2.4000
   -0.5513   -2.4000
   -0.6021   -2.4000
   -0.6021   -2.4000
   -0.2863   -2.4000
   -0.2863   -2.4000
   -0.4364   -2.6000
   -0.3004   -2.6000
   -0.3004   -2.6000
   -0.4910   -2.6000
   -0.6185   -2.6000
   -0.5581   -2.6000
   -0.6085   -2.6000
   -0.6085   -2.6000
   -0.7348   -2.6000
   -0.7294   -2.6000
   -0.7732   -2.6000
   -0.7732   -2.6000
   -0.8655   -2.6000
   -0.8193   -2.6000
   -0.8731   -2.6000
   -0.8731   -2.6000
   -0.9062   -2.6000
   -0.8951   -2.6000
   -0.8655   -2.6000
   -0.9088   -2.6000
   -0.9062   -2.6000
   -0.9088   -2.6000
   -0.8951   -2.6000
   -0.9088   -2.6000
   -0.9088   -2.6000
   -0.7348   -2.6000
   -0.8731   -2.6000
   -0.8731   -2.6000
   -0.8193   -2.6000
   -0.7294   -2.6000
   -0.6185   -2.6000
   -0.7732   -2.6000
   -0.7732   -2.6000
   -0.4364   -2.6000
   -0.4910   -2.6000
   -0.5581   -2.6000
   -0.6085   -2.6000
   -0.6085   -2.6000
   -0.3004   -2.6000
   -0.3004   -2.6000
   -0.4448   -2.8000
   -0.3138   -2.8000
   -0.3138   -2.8000
   -0.4987   -2.8000
   -0.6242   -2.8000
   -0.5648   -2.8000
   -0.6148   -2.8000
   -0.6148   -2.8000
   -0.7390   -2.8000
   -0.7346   -2.8000
   -0.7785   -2.8000
   -0.7785   -2.8000
   -0.8697   -2.8000
   -0.8239   -2.8000
   -0.8776   -2.8000
   -0.8776   -2.8000
   -0.9104   -2.8000
   -0.8993   -2.8000
   -0.8697   -2.8000
   -0.9130   -2.8000
   -0.9104   -2.8000
   -0.9130   -2.8000
   -0.8993   -2.8000
   -0.9130   -2.8000
   -0.9130   -2.8000
   -0.7390   -2.8000
   -0.8776   -2.8000
   -0.8776   -2.8000
   -0.8239   -2.8000
   -0.7346   -2.8000
   -0.6242   -2.8000
   -0.7785   -2.8000
   -0.7785   -2.8000
   -0.4448   -2.8000
   -0.4987   -2.8000
   -0.5648   -2.8000
   -0.6148   -2.8000
   -0.6148   -2.8000
   -0.3138   -2.8000
   -0.3138   -2.8000
   -0.4529   -3.0000
   -0.3267   -3.0000
   -0.3267   -3.0000
   -0.5062   -3.0000
   -0.6299   -3.0000
   -0.5715   -3.0000
   -0.6210   -3.0000
   -0.6210   -3.0000
   -0.7432   -3.0000
   -0.7397   -3.0000
   -0.7838   -3.0000
   -0.7838   -3.0000
   -0.8738   -3.0000
   -0.8285   -3.0000
   -0.8821   -3.0000
   -0.8821   -3.0000
   -0.9145   -3.0000
   -0.9035   -3.0000
   -0.8738   -3.0000
   -0.9172   -3.0000
   -0.9145   -3.0000
   -0.9172   -3.0000
   -0.9035   -3.0000
   -0.9172   -3.0000
   -0.9172   -3.0000
   -0.7432   -3.0000
   -0.8821   -3.0000
   -0.8821   -3.0000
   -0.8285   -3.0000
   -0.7397   -3.0000
   -0.6299   -3.0000
   -0.7838   -3.0000
   -0.7838   -3.0000
   -0.4529   -3.0000
   -0.5062   -3.0000
   -0.5715   -3.0000
   -0.6210   -3.0000
   -0.6210   -3.0000
   -0.3267   -3.0000
   -0.3267   -3.0000
   -0.4610   -3.2000
   -0.3391   -3.2000
   -0.3391   -3.2000
   -0.5136   -3.2000
   -0.6354   -3.2000
   -0.5781   -3.2000
   -0.6272   -3.2000
   -0.6272   -3.2000
   -0.7474   -3.2000
   -0.7448   -3.2000
   -0.7890   -3.2000
   -0.7890   -3.2000
   -0.8779   -3.2000
   -0.8331   -3.2000
   -0.8866   -3.2000
   -0.8866   -3.2000
   -0.9076   -3.2000
   -0.9186   -3.2000
   -0.8779   -3.2000
   -0.9186   -3.2000
   -0.9214   -3.2000
   -0.9076   -3.2000
   -0.9214   -3.2000
   -0.9214   -3.2000
   -0.9214   -3.2000
   -0.7474   -3.2000
   -0.8866   -3.2000
   -0.8866   -3.2000
   -0.8331   -3.2000
   -0.7448   -3.2000
   -0.6354   -3.2000
   -0.7890   -3.2000
   -0.7890   -3.2000
   -0.4610   -3.2000
   -0.5136   -3.2000
   -0.5781   -3.2000
   -0.6272   -3.2000
   -0.6272   -3.2000
   -0.3391   -3.2000
   -0.3391   -3.2000
   -0.4689   -3.4000
   -0.3511   -3.4000
   -0.3511   -3.4000
   -0.5209   -3.4000
   -0.6409   -3.4000
   -0.5846   -3.4000
   -0.6334   -3.4000
   -0.6334   -3.4000
   -0.7515   -3.4000
   -0.7499   -3.4000
   -0.7942   -3.4000
   -0.7942   -3.4000
   -0.8820   -3.4000
   -0.8376   -3.4000
   -0.8910   -3.4000
   -0.8910   -3.4000
   -0.9118   -3.4000
   -0.9227   -3.4000
   -0.8820   -3.4000
   -0.9227   -3.4000
   -0.9256   -3.4000
   -0.9118   -3.4000
   -0.9256   -3.4000
   -0.9256   -3.4000
   -0.9256   -3.4000
   -0.7515   -3.4000
   -0.8910   -3.4000
   -0.8910   -3.4000
   -0.8376   -3.4000
   -0.6409   -3.4000
   -0.7499   -3.4000
   -0.7942   -3.4000
   -0.7942   -3.4000
   -0.4689   -3.4000
   -0.5209   -3.4000
   -0.5846   -3.4000
   -0.6334   -3.4000
   -0.6334   -3.4000
   -0.3511   -3.4000
   -0.3511   -3.4000
   -0.4766   -3.6000
   -0.3627   -3.6000
   -0.3627   -3.6000
   -0.5281   -3.6000
   -0.6464   -3.6000
   -0.5910   -3.6000
   -0.6394   -3.6000
   -0.6394   -3.6000
   -0.7557   -3.6000
   -0.7549   -3.6000
   -0.7994   -3.6000
   -0.7994   -3.6000
   -0.8860   -3.6000
   -0.8421   -3.6000
   -0.8955   -3.6000
   -0.8955   -3.6000
   -0.9159   -3.6000
   -0.9268   -3.6000
   -0.8860   -3.6000
   -0.9268   -3.6000
   -0.9297   -3.6000
   -0.9159   -3.6000
   -0.9297   -3.6000
   -0.9297   -3.6000
   -0.9297   -3.6000
   -0.7557   -3.6000
   -0.8955   -3.6000
   -0.8955   -3.6000
   -0.8421   -3.6000
   -0.7549   -3.6000
   -0.6464   -3.6000
   -0.7994   -3.6000
   -0.7994   -3.6000
   -0.4766   -3.6000
   -0.5281   -3.6000
   -0.5910   -3.6000
   -0.6394   -3.6000
   -0.6394   -3.6000
   -0.3627   -3.6000
   -0.3627   -3.6000
   -0.4842   -3.8000
   -0.3739   -3.8000
   -0.3739   -3.8000
   -0.5352   -3.8000
   -0.6518   -3.8000
   -0.5974   -3.8000
   -0.6455   -3.8000
   -0.6455   -3.8000
   -0.7598   -3.8000
   -0.7599   -3.8000
   -0.8045   -3.8000
   -0.8045   -3.8000
   -0.8901   -3.8000
   -0.8466   -3.8000
   -0.8999   -3.8000
   -0.8999   -3.8000
   -0.9308   -3.8000
   -0.9200   -3.8000
   -0.8901   -3.8000
   -0.9339   -3.8000
   -0.9308   -3.8000
   -0.9339   -3.8000
   -0.9200   -3.8000
   -0.9339   -3.8000
   -0.9339   -3.8000
   -0.7598   -3.8000
   -0.8999   -3.8000
   -0.8999   -3.8000
   -0.8466   -3.8000
   -0.7599   -3.8000
   -0.6518   -3.8000
   -0.8045   -3.8000
   -0.8045   -3.8000
   -0.4842   -3.8000
   -0.5352   -3.8000
   -0.5974   -3.8000
   -0.6455   -3.8000
   -0.6455   -3.8000
   -0.3739   -3.8000
   -0.3739   -3.8000
   -0.4917   -4.0000
   -0.3848   -4.0000
   -0.3848   -4.0000
   -0.5422   -4.0000
   -0.6571   -4.0000
   -0.6037   -4.0000
   -0.6514   -4.0000
   -0.6514   -4.0000
   -0.7639   -4.0000
   -0.7648   -4.0000
   -0.8097   -4.0000
   -0.8097   -4.0000
   -0.8941   -4.0000
   -0.8510   -4.0000
   -0.9043   -4.0000
   -0.9043   -4.0000
   -0.9349   -4.0000
   -0.9241   -4.0000
   -0.8941   -4.0000
   -0.9380   -4.0000
   -0.9349   -4.0000
   -0.9380   -4.0000
   -0.9241   -4.0000
   -0.9380   -4.0000
   -0.9380   -4.0000
   -0.9043   -4.0000
   -0.9043   -4.0000
   -0.8510   -4.0000
   -0.7639   -4.0000
   -0.7648   -4.0000
   -0.6571   -4.0000
   -0.8097   -4.0000
   -0.8097   -4.0000
   -0.4917   -4.0000
   -0.5422   -4.0000
   -0.6037   -4.0000
   -0.6514   -4.0000
   -0.6514   -4.0000
   -0.3848   -4.0000
   -0.3848   -4.0000
   -0.4990   -4.2000
   -0.3954   -4.2000
   -0.3954   -4.2000
   -0.5491   -4.2000
   -0.6624   -4.2000
   -0.6099   -4.2000
   -0.6573   -4.2000
   -0.6573   -4.2000
   -0.7679   -4.2000
   -0.7698   -4.2000
   -0.8982   -4.2000
   -0.8147   -4.2000
   -0.8147   -4.2000
   -0.8555   -4.2000
   -0.9086   -4.2000
   -0.9086   -4.2000
   -0.9389   -4.2000
   -0.9282   -4.2000
   -0.8982   -4.2000
   -0.9421   -4.2000
   -0.9389   -4.2000
   -0.9421   -4.2000
   -0.9282   -4.2000
   -0.9421   -4.2000
   -0.9421   -4.2000
   -0.7679   -4.2000
   -0.9086   -4.2000
   -0.9086   -4.2000
   -0.8555   -4.2000
   -0.7698   -4.2000
   -0.6624   -4.2000
   -0.8147   -4.2000
   -0.8147   -4.2000
   -0.4990   -4.2000
   -0.5491   -4.2000
   -0.6099   -4.2000
   -0.6573   -4.2000
   -0.6573   -4.2000
   -0.3954   -4.2000
   -0.3954   -4.2000
   -0.5063   -4.4000
   -0.4057   -4.4000
   -0.4057   -4.4000
   -0.5559   -4.4000
   -0.6677   -4.4000
   -0.6160   -4.4000
   -0.7720   -4.4000
   -0.6632   -4.4000
   -0.6632   -4.4000
   -0.7747   -4.4000
   -0.8198   -4.4000
   -0.8198   -4.4000
   -0.9022   -4.4000
   -0.8599   -4.4000
   -0.9130   -4.4000
   -0.9130   -4.4000
   -0.9429   -4.4000
   -0.9322   -4.4000
   -0.9022   -4.4000
   -0.9462   -4.4000
   -0.9429   -4.4000
   -0.9462   -4.4000
   -0.9322   -4.4000
   -0.9462   -4.4000
   -0.9462   -4.4000
   -0.7720   -4.4000
   -0.9130   -4.4000
   -0.9130   -4.4000
   -0.8599   -4.4000
   -0.7747   -4.4000
   -0.6677   -4.4000
   -0.8198   -4.4000
   -0.8198   -4.4000
   -0.5063   -4.4000
   -0.5559   -4.4000
   -0.6160   -4.4000
   -0.6632   -4.4000
   -0.6632   -4.4000
   -0.4057   -4.4000
   -0.4057   -4.4000
   -0.5134   -4.6000
   -0.4158   -4.6000
   -0.4158   -4.6000
   -0.5627   -4.6000
   -0.6728   -4.6000
   -0.6222   -4.6000
   -0.6690   -4.6000
   -0.6690   -4.6000
   -0.7760   -4.6000
   -0.7796   -4.6000
   -0.9062   -4.6000
   -0.8248   -4.6000
   -0.8248   -4.6000
   -0.8643   -4.6000
   -0.9173   -4.6000
   -0.9173   -4.6000
   -0.9469   -4.6000
   -0.9363   -4.6000
   -0.9062   -4.6000
   -0.9503   -4.6000
   -0.9469   -4.6000
   -0.9503   -4.6000
   -0.9363   -4.6000
   -0.9503   -4.6000
   -0.9503   -4.6000
   -0.7760   -4.6000
   -0.9173   -4.6000
   -0.9173   -4.6000
   -0.8643   -4.6000
   -0.7796   -4.6000
   -0.6728   -4.6000
   -0.8248   -4.6000
   -0.8248   -4.6000
   -0.5134   -4.6000
   -0.5627   -4.6000
   -0.6222   -4.6000
   -0.6690   -4.6000
   -0.6690   -4.6000
   -0.4158   -4.6000
   -0.4158   -4.6000
   -0.5204   -4.8000
   -0.4256   -4.8000
   -0.4256   -4.8000
   -0.5694   -4.8000
   -0.6780   -4.8000
   -0.6282   -4.8000
   -0.7801   -4.8000
   -0.6747   -4.8000
   -0.6747   -4.8000
   -0.7844   -4.8000
   -0.8297   -4.8000
   -0.8297   -4.8000
   -0.8686   -4.8000
   -0.9101   -4.8000
   -0.9509   -4.8000
   -0.9216   -4.8000
   -0.9216   -4.8000
   -0.9403   -4.8000
   -0.9101   -4.8000
   -0.9544   -4.8000
   -0.9509   -4.8000
   -0.9544   -4.8000
   -0.9544   -4.8000
   -0.9544   -4.8000
   -0.9403   -4.8000
   -0.7801   -4.8000
   -0.9216   -4.8000
   -0.9216   -4.8000
   -0.8686   -4.8000
   -0.7844   -4.8000
   -0.6780   -4.8000
   -0.8297   -4.8000
   -0.8297   -4.8000
   -0.5204   -4.8000
   -0.5694   -4.8000
   -0.6282   -4.8000
   -0.6747   -4.8000
   -0.6747   -4.8000
   -0.4256   -4.8000
   -0.4256   -4.8000
   -0.5273   -5.0000
   -0.4352   -5.0000
   -0.4352   -5.0000
   -0.5760   -5.0000
   -0.6831   -5.0000
   -0.6342   -5.0000
   -0.7841   -5.0000
   -0.6805   -5.0000
   -0.6805   -5.0000
   -0.7892   -5.0000
   -0.9141   -5.0000
   -0.8347   -5.0000
   -0.8347   -5.0000
   -0.8730   -5.0000
   -0.9259   -5.0000
   -0.9259   -5.0000
   -0.9548   -5.0000
   -0.9443   -5.0000
   -0.9141   -5.0000
   -0.9584   -5.0000
   -0.9548   -5.0000
   -0.9584   -5.0000
   -0.9584   -5.0000
   -0.9584   -5.0000
   -0.9443   -5.0000
   -0.7841   -5.0000
   -0.9259   -5.0000
   -0.9259   -5.0000
   -0.8730   -5.0000
   -0.7892   -5.0000
   -0.8347   -5.0000
   -0.8347   -5.0000
   -0.6831   -5.0000
   -0.5273   -5.0000
   -0.5760   -5.0000
   -0.6342   -5.0000
   -0.6805   -5.0000
   -0.6805   -5.0000
   -0.4352   -5.0000
   -0.4352   -5.0000
   -0.5341   -5.2000
   -0.4446   -5.2000
   -0.4446   -5.2000
   -0.5825   -5.2000
   -0.6881   -5.2000
   -0.6401   -5.2000
   -0.7880   -5.2000
   -0.6861   -5.2000
   -0.6861   -5.2000
   -0.7940   -5.2000
   -0.8396   -5.2000
   -0.8396   -5.2000
   -0.9181   -5.2000
   -0.8773   -5.2000
   -0.9588   -5.2000
   -0.9302   -5.2000
   -0.9302   -5.2000
   -0.9483   -5.2000
   -0.9181   -5.2000
   -0.9624   -5.2000
   -0.9588   -5.2000
   -0.9624   -5.2000
   -0.9624   -5.2000
   -0.9624   -5.2000
   -0.9483   -5.2000
   -0.7880   -5.2000
   -0.9302   -5.2000
   -0.9302   -5.2000
   -0.8773   -5.2000
   -0.7940   -5.2000
   -0.8396   -5.2000
   -0.8396   -5.2000
   -0.6881   -5.2000
   -0.5341   -5.2000
   -0.5825   -5.2000
   -0.6401   -5.2000
   -0.6861   -5.2000
   -0.6861   -5.2000
   -0.4446   -5.2000
   -0.4446   -5.2000
   -0.5408   -5.4000
   -0.4538   -5.4000
   -0.4538   -5.4000
   -0.5889   -5.4000
   -0.6931   -5.4000
   -0.6460   -5.4000
   -0.7920   -5.4000
   -0.6917   -5.4000
   -0.6917   -5.4000
   -0.7987   -5.4000
   -0.8445   -5.4000
   -0.8445   -5.4000
   -0.9220   -5.4000
   -0.8816   -5.4000
   -0.9627   -5.4000
   -0.9344   -5.4000
   -0.9344   -5.4000
   -0.9522   -5.4000
   -0.9220   -5.4000
   -0.9664   -5.4000
   -0.9627   -5.4000
   -0.9664   -5.4000
   -0.9664   -5.4000
   -0.9664   -5.4000
   -0.9522   -5.4000
   -0.7920   -5.4000
   -0.9344   -5.4000
   -0.9344   -5.4000
   -0.8816   -5.4000
   -0.7987   -5.4000
   -0.8445   -5.4000
   -0.8445   -5.4000
   -0.6931   -5.4000
   -0.5408   -5.4000
   -0.5889   -5.4000
   -0.6460   -5.4000
   -0.6917   -5.4000
   -0.6917   -5.4000
   -0.4538   -5.4000
   -0.4538   -5.4000
   -0.5474   -5.6000
   -0.4628   -5.6000
   -0.4628   -5.6000
   -0.5953   -5.6000
   -0.6981   -5.6000
   -0.6518   -5.6000
   -0.7960   -5.6000
   -0.6973   -5.6000
   -0.6973   -5.6000
   -0.8035   -5.6000
   -0.8493   -5.6000
   -0.8493   -5.6000
   -0.9259   -5.6000
   -0.8859   -5.6000
   -0.9666   -5.6000
   -0.9387   -5.6000
   -0.9387   -5.6000
   -0.9562   -5.6000
   -0.9259   -5.6000
   -0.9704   -5.6000
   -0.9666   -5.6000
   -0.9704   -5.6000
   -0.9704   -5.6000
   -0.9704   -5.6000
   -0.9562   -5.6000
   -0.9387   -5.6000
   -0.9387   -5.6000
   -0.7960   -5.6000
   -0.8859   -5.6000
   -0.8035   -5.6000
   -0.8493   -5.6000
   -0.8493   -5.6000
   -0.5474   -5.6000
   -0.6981   -5.6000
   -0.5953   -5.6000
   -0.6518   -5.6000
   -0.6973   -5.6000
   -0.6973   -5.6000
   -0.4628   -5.6000
   -0.4628   -5.6000
   -0.5540   -5.8000
   -0.4716   -5.8000
   -0.4716   -5.8000
   -0.6016   -5.8000
   -0.6576   -5.8000
   -0.7030   -5.8000
   -0.7999   -5.8000
   -0.7028   -5.8000
   -0.7028   -5.8000
   -0.8081   -5.8000
   -0.8542   -5.8000
   -0.8542   -5.8000
   -0.9298   -5.8000
   -0.8901   -5.8000
   -0.9705   -5.8000
   -0.9429   -5.8000
   -0.9429   -5.8000
   -0.9601   -5.8000
   -0.9298   -5.8000
   -0.9744   -5.8000
   -0.9705   -5.8000
   -0.9744   -5.8000
   -0.9744   -5.8000
   -0.9744   -5.8000
   -0.9601   -5.8000
   -0.7999   -5.8000
   -0.9429   -5.8000
   -0.9429   -5.8000
   -0.8901   -5.8000
   -0.8081   -5.8000
   -0.8542   -5.8000
   -0.8542   -5.8000
   -0.5540   -5.8000
   -0.7030   -5.8000
   -0.6016   -5.8000
   -0.6576   -5.8000
   -0.7028   -5.8000
   -0.7028   -5.8000
   -0.4716   -5.8000
   -0.4716   -5.8000
   -0.5604   -6.0000
   -0.4803   -6.0000
   -0.4803   -6.0000
   -0.6078   -6.0000
   -0.7078   -6.0000
   -0.6633   -6.0000
   -0.8038   -6.0000
   -0.7083   -6.0000
   -0.7083   -6.0000
   -0.8128   -6.0000
   -0.8590   -6.0000
   -0.8590   -6.0000
   -0.9337   -6.0000
   -0.8944   -6.0000
   -0.9744   -6.0000
   -0.9471   -6.0000
   -0.9471   -6.0000
   -0.9640   -6.0000
   -0.9337   -6.0000
   -0.9784   -6.0000
   -0.9744   -6.0000
   -0.9784   -6.0000
   -0.9784   -6.0000
   -0.9784   -6.0000
   -0.9640   -6.0000
   -0.8038   -6.0000
   -0.9471   -6.0000
   -0.9471   -6.0000
   -0.8944   -6.0000
   -0.8128   -6.0000
   -0.8590   -6.0000
   -0.8590   -6.0000
   -0.5604   -6.0000
   -0.7078   -6.0000
   -0.6078   -6.0000
   -0.6633   -6.0000
   -0.7083   -6.0000
   -0.7083   -6.0000
   -0.4803   -6.0000
   -0.4803   -6.0000
   -0.5668   -6.2000
   -0.4889   -6.2000
   -0.4889   -6.2000
   -0.6140   -6.2000
   -0.7126   -6.2000
   -0.6690   -6.2000
   -0.8078   -6.2000
   -0.7137   -6.2000
   -0.7137   -6.2000
   -0.8175   -6.2000
   -0.8637   -6.2000
   -0.8637   -6.2000
   -0.9376   -6.2000
   -0.8986   -6.2000
   -0.9782   -6.2000
   -0.9512   -6.2000
   -0.9512   -6.2000
   -0.9679   -6.2000
   -0.9376   -6.2000
   -0.9824   -6.2000
   -0.9782   -6.2000
   -0.9824   -6.2000
   -0.9824   -6.2000
   -0.9824   -6.2000
   -0.9679   -6.2000
   -0.8078   -6.2000
   -0.9512   -6.2000
   -0.9512   -6.2000
   -0.8986   -6.2000
   -0.8175   -6.2000
   -0.8637   -6.2000
   -0.8637   -6.2000
   -0.7126   -6.2000
   -0.5668   -6.2000
   -0.6140   -6.2000
   -0.6690   -6.2000
   -0.7137   -6.2000
   -0.7137   -6.2000
   -0.4889   -6.2000
   -0.4889   -6.2000
   -0.5730   -6.4000
   -0.4972   -6.4000
   -0.4972   -6.4000
   -0.6201   -6.4000
   -0.7174   -6.4000
   -0.6746   -6.4000
   -0.8117   -6.4000
   -0.7191   -6.4000
   -0.7191   -6.4000
   -0.8221   -6.4000
   -0.9415   -6.4000
   -0.8685   -6.4000
   -0.8685   -6.4000
   -0.9028   -6.4000
   -0.9821   -6.4000
   -0.9554   -6.4000
   -0.9554   -6.4000
   -0.9718   -6.4000
   -0.9415   -6.4000
   -0.9863   -6.4000
   -0.9821   -6.4000
   -0.9863   -6.4000
   -0.9863   -6.4000
   -0.9863   -6.4000
   -0.9718   -6.4000
   -0.8117   -6.4000
   -0.9554   -6.4000
   -0.9554   -6.4000
   -0.9028   -6.4000
   -0.8221   -6.4000
   -0.8685   -6.4000
   -0.8685   -6.4000
   -0.7174   -6.4000
   -0.5730   -6.4000
   -0.6201   -6.4000
   -0.6746   -6.4000
   -0.7191   -6.4000
   -0.7191   -6.4000
   -0.4972   -6.4000
   -0.4972   -6.4000
   -0.5792   -6.6000
   -0.5055   -6.6000
   -0.5055   -6.6000
   -0.6262   -6.6000
   -0.7221   -6.6000
   -0.6802   -6.6000
   -0.8156   -6.6000
   -0.7245   -6.6000
   -0.7245   -6.6000
   -0.8267   -6.6000
   -0.9453   -6.6000
   -0.8732   -6.6000
   -0.8732   -6.6000
   -0.9070   -6.6000
   -0.9859   -6.6000
   -0.9595   -6.6000
   -0.9595   -6.6000
   -0.9757   -6.6000
   -0.9453   -6.6000
   -0.9902   -6.6000
   -0.9859   -6.6000
   -0.9902   -6.6000
   -0.9902   -6.6000
   -0.9902   -6.6000
   -0.9757   -6.6000
   -0.8156   -6.6000
   -0.9595   -6.6000
   -0.9595   -6.6000
   -0.9070   -6.6000
   -0.8267   -6.6000
   -0.8732   -6.6000
   -0.8732   -6.6000
   -0.7221   -6.6000
   -0.5792   -6.6000
   -0.6262   -6.6000
   -0.6802   -6.6000
   -0.7245   -6.6000
   -0.7245   -6.6000
   -0.5055   -6.6000
   -0.5055   -6.6000
   -0.0858   -6.8000
   -0.5854   -6.8000
   -0.5136   -6.8000
   -0.5136   -6.8000
   -0.6322   -6.8000
   -0.7268   -6.8000
   -0.6857   -6.8000
   -0.8195   -6.8000
   -0.7298   -6.8000
   -0.7298   -6.8000
   -0.8312   -6.8000
   -0.9492   -6.8000
   -0.8779   -6.8000
   -0.8779   -6.8000
   -0.9111   -6.8000
   -0.9897   -6.8000
   -0.9636   -6.8000
   -0.9636   -6.8000
   -0.9492   -6.8000
   -0.9796   -6.8000
   -0.9897   -6.8000
   -0.9941   -6.8000
   -0.9941   -6.8000
   -0.9941   -6.8000
   -0.9941   -6.8000
   -0.9796   -6.8000
   -0.8195   -6.8000
   -0.9636   -6.8000
   -0.9636   -6.8000
   -0.9111   -6.8000
   -0.8312   -6.8000
   -0.7268   -6.8000
   -0.5854   -6.8000
   -0.8779   -6.8000
   -0.8779   -6.8000
   -0.6322   -6.8000
   -0.6857   -6.8000
   -0.7298   -6.8000
   -0.7298   -6.8000
   -0.0858   -6.8000
   -0.5136   -6.8000
   -0.5136   -6.8000
   -0.1224   -7.0000
   -0.5914   -7.0000
   -0.5216   -7.0000
   -0.5216   -7.0000
   -0.6381   -7.0000
   -0.7315   -7.0000
   -0.6912   -7.0000
   -0.8233   -7.0000
   -0.7351   -7.0000
   -0.7351   -7.0000
   -0.8358   -7.0000
   -0.9530   -7.0000
   -0.8825   -7.0000
   -0.8825   -7.0000
   -0.9153   -7.0000
   -0.9935   -7.0000
   -0.9677   -7.0000
   -0.9677   -7.0000
   -0.9530   -7.0000
   -0.9834   -7.0000
   -0.9935   -7.0000
   -0.9980   -7.0000
   -0.9980   -7.0000
   -0.9980   -7.0000
   -0.9980   -7.0000
   -0.9834   -7.0000
   -0.8233   -7.0000
   -0.9677   -7.0000
   -0.9677   -7.0000
   -0.9153   -7.0000
   -0.8358   -7.0000
   -0.7315   -7.0000
   -0.8825   -7.0000
   -0.8825   -7.0000
   -0.5914   -7.0000
   -0.6381   -7.0000
   -0.6912   -7.0000
   -0.7351   -7.0000
   -0.7351   -7.0000
   -0.1224   -7.0000
   -0.5216   -7.0000
   -0.5216   -7.0000
