#        Energy grid [eV]               EELS_x                   EELS_y                   EELS_z
#
                 0.000000                      NaN                      NaN                      NaN
                 0.010010                 0.000022                 0.000022                 0.000022
                 0.020020                 0.000043                 0.000043                 0.000043
                 0.030031                 0.000065                 0.000065                 0.000065
                 0.040041                 0.000087                 0.000087                 0.000087
                 0.050051                 0.000109                 0.000109                 0.000109
                 0.060061                 0.000130                 0.000131                 0.000130
                 0.070071                 0.000152                 0.000152                 0.000152
                 0.080082                 0.000174                 0.000174                 0.000174
                 0.090092                 0.000196                 0.000196                 0.000196
                 0.100102                 0.000218                 0.000218                 0.000218
                 0.110112                 0.000239                 0.000240                 0.000239
                 0.120122                 0.000261                 0.000261                 0.000261
                 0.130133                 0.000283                 0.000283                 0.000283
                 0.140143                 0.000305                 0.000305                 0.000305
                 0.150153                 0.000327                 0.000327                 0.000327
                 0.160163                 0.000349                 0.000349                 0.000349
                 0.170173                 0.000371                 0.000371                 0.000371
                 0.180183                 0.000393                 0.000393                 0.000393
                 0.190194                 0.000415                 0.000415                 0.000415
                 0.200204                 0.000437                 0.000437                 0.000437
                 0.210214                 0.000459                 0.000459                 0.000459
                 0.220224                 0.000481                 0.000481                 0.000481
                 0.230234                 0.000503                 0.000503                 0.000503
                 0.240245                 0.000525                 0.000526                 0.000525
                 0.250255                 0.000547                 0.000548                 0.000547
                 0.260265                 0.000570                 0.000570                 0.000570
                 0.270275                 0.000592                 0.000592                 0.000592
                 0.280285                 0.000614                 0.000615                 0.000614
                 0.290296                 0.000637                 0.000637                 0.000637
                 0.300306                 0.000659                 0.000660                 0.000659
                 0.310316                 0.000682                 0.000682                 0.000682
                 0.320326                 0.000704                 0.000705                 0.000704
                 0.330336                 0.000727                 0.000727                 0.000727
                 0.340347                 0.000749                 0.000750                 0.000749
                 0.350357                 0.000772                 0.000772                 0.000772
                 0.360367                 0.000795                 0.000795                 0.000795
                 0.370377                 0.000818                 0.000818                 0.000818
                 0.380387                 0.000841                 0.000841                 0.000841
                 0.390398                 0.000863                 0.000864                 0.000863
                 0.400408                 0.000886                 0.000887                 0.000886
                 0.410418                 0.000910                 0.000910                 0.000910
                 0.420428                 0.000933                 0.000933                 0.000933
                 0.430438                 0.000956                 0.000956                 0.000956
                 0.440449                 0.000979                 0.000980                 0.000979
                 0.450459                 0.001003                 0.001003                 0.001003
                 0.460469                 0.001026                 0.001026                 0.001026
                 0.470479                 0.001049                 0.001050                 0.001049
                 0.480489                 0.001073                 0.001074                 0.001073
                 0.490499                 0.001097                 0.001097                 0.001097
                 0.500510                 0.001121                 0.001121                 0.001121
                 0.510520                 0.001144                 0.001145                 0.001144
                 0.520530                 0.001168                 0.001169                 0.001168
                 0.530540                 0.001192                 0.001193                 0.001192
                 0.540550                 0.001216                 0.001217                 0.001216
                 0.550561                 0.001241                 0.001241                 0.001241
                 0.560571                 0.001265                 0.001266                 0.001265
                 0.570581                 0.001290                 0.001290                 0.001290
                 0.580591                 0.001314                 0.001315                 0.001314
                 0.590601                 0.001339                 0.001339                 0.001339
                 0.600612                 0.001363                 0.001364                 0.001363
                 0.610622                 0.001388                 0.001389                 0.001388
                 0.620632                 0.001413                 0.001414                 0.001413
                 0.630642                 0.001438                 0.001439                 0.001438
                 0.640652                 0.001464                 0.001464                 0.001464
                 0.650663                 0.001489                 0.001490                 0.001489
                 0.660673                 0.001514                 0.001515                 0.001514
                 0.670683                 0.001540                 0.001541                 0.001540
                 0.680693                 0.001566                 0.001567                 0.001566
                 0.690703                 0.001592                 0.001592                 0.001592
                 0.700714                 0.001618                 0.001618                 0.001618
                 0.710724                 0.001644                 0.001645                 0.001644
                 0.720734                 0.001670                 0.001671                 0.001670
                 0.730744                 0.001697                 0.001697                 0.001697
                 0.740754                 0.001723                 0.001724                 0.001723
                 0.750765                 0.001750                 0.001751                 0.001750
                 0.760775                 0.001777                 0.001778                 0.001777
                 0.770785                 0.001804                 0.001805                 0.001804
                 0.780795                 0.001831                 0.001832                 0.001831
                 0.790805                 0.001858                 0.001859                 0.001858
                 0.800816                 0.001886                 0.001887                 0.001886
                 0.810826                 0.001914                 0.001915                 0.001914
                 0.820836                 0.001942                 0.001943                 0.001942
                 0.830846                 0.001970                 0.001971                 0.001970
                 0.840856                 0.001998                 0.001999                 0.001998
                 0.850866                 0.002027                 0.002028                 0.002027
                 0.860877                 0.002055                 0.002056                 0.002055
                 0.870887                 0.002084                 0.002085                 0.002084
                 0.880897                 0.002113                 0.002114                 0.002113
                 0.890907                 0.002142                 0.002143                 0.002142
                 0.900917                 0.002172                 0.002173                 0.002172
                 0.910928                 0.002202                 0.002203                 0.002202
                 0.920938                 0.002231                 0.002233                 0.002231
                 0.930948                 0.002262                 0.002263                 0.002262
                 0.940958                 0.002292                 0.002293                 0.002292
                 0.950968                 0.002323                 0.002324                 0.002323
                 0.960979                 0.002353                 0.002355                 0.002353
                 0.970989                 0.002384                 0.002386                 0.002384
                 0.980999                 0.002416                 0.002417                 0.002416
                 0.991009                 0.002447                 0.002449                 0.002447
                 1.001019                 0.002479                 0.002480                 0.002479
                 1.011030                 0.002511                 0.002513                 0.002511
                 1.021040                 0.002544                 0.002545                 0.002544
                 1.031050                 0.002576                 0.002578                 0.002576
                 1.041060                 0.002609                 0.002611                 0.002609
                 1.051070                 0.002643                 0.002644                 0.002643
                 1.061081                 0.002676                 0.002677                 0.002676
                 1.071091                 0.002710                 0.002711                 0.002710
                 1.081101                 0.002744                 0.002745                 0.002744
                 1.091111                 0.002779                 0.002780                 0.002779
                 1.101121                 0.002813                 0.002815                 0.002813
                 1.111132                 0.002848                 0.002850                 0.002848
                 1.121142                 0.002884                 0.002885                 0.002884
                 1.131152                 0.002920                 0.002921                 0.002920
                 1.141162                 0.002956                 0.002957                 0.002956
                 1.151172                 0.002992                 0.002994                 0.002992
                 1.161182                 0.003029                 0.003031                 0.003029
                 1.171193                 0.003066                 0.003068                 0.003066
                 1.181203                 0.003104                 0.003106                 0.003104
                 1.191213                 0.003142                 0.003144                 0.003142
                 1.201223                 0.003180                 0.003182                 0.003180
                 1.211233                 0.003219                 0.003221                 0.003219
                 1.221244                 0.003259                 0.003260                 0.003259
                 1.231254                 0.003298                 0.003300                 0.003298
                 1.241264                 0.003338                 0.003340                 0.003338
                 1.251274                 0.003379                 0.003381                 0.003379
                 1.261284                 0.003420                 0.003422                 0.003420
                 1.271295                 0.003461                 0.003463                 0.003461
                 1.281305                 0.003503                 0.003505                 0.003503
                 1.291315                 0.003546                 0.003548                 0.003546
                 1.301325                 0.003589                 0.003591                 0.003589
                 1.311335                 0.003632                 0.003634                 0.003632
                 1.321346                 0.003677                 0.003678                 0.003677
                 1.331356                 0.003721                 0.003723                 0.003721
                 1.341366                 0.003766                 0.003768                 0.003766
                 1.351376                 0.003812                 0.003814                 0.003812
                 1.361386                 0.003858                 0.003860                 0.003858
                 1.371397                 0.003905                 0.003907                 0.003905
                 1.381407                 0.003953                 0.003955                 0.003953
                 1.391417                 0.004001                 0.004003                 0.004001
                 1.401427                 0.004050                 0.004052                 0.004050
                 1.411437                 0.004099                 0.004101                 0.004099
                 1.421448                 0.004149                 0.004151                 0.004149
                 1.431458                 0.004200                 0.004202                 0.004200
                 1.441468                 0.004252                 0.004254                 0.004252
                 1.451478                 0.004304                 0.004306                 0.004304
                 1.461488                 0.004357                 0.004359                 0.004357
                 1.471498                 0.004411                 0.004413                 0.004411
                 1.481509                 0.004465                 0.004467                 0.004465
                 1.491519                 0.004521                 0.004523                 0.004521
                 1.501529                 0.004577                 0.004579                 0.004577
                 1.511539                 0.004634                 0.004636                 0.004634
                 1.521549                 0.004692                 0.004694                 0.004692
                 1.531560                 0.004751                 0.004753                 0.004751
                 1.541570                 0.004811                 0.004813                 0.004811
                 1.551580                 0.004871                 0.004874                 0.004871
                 1.561590                 0.004933                 0.004935                 0.004933
                 1.571600                 0.004996                 0.004998                 0.004996
                 1.581611                 0.005060                 0.005062                 0.005060
                 1.591621                 0.005124                 0.005127                 0.005125
                 1.601631                 0.005190                 0.005193                 0.005190
                 1.611641                 0.005257                 0.005260                 0.005258
                 1.621651                 0.005326                 0.005328                 0.005326
                 1.631662                 0.005395                 0.005398                 0.005395
                 1.641672                 0.005466                 0.005468                 0.005466
                 1.651682                 0.005538                 0.005540                 0.005538
                 1.661692                 0.005611                 0.005613                 0.005611
                 1.671702                 0.005685                 0.005688                 0.005686
                 1.681713                 0.005761                 0.005764                 0.005761
                 1.691723                 0.005839                 0.005841                 0.005839
                 1.701733                 0.005917                 0.005920                 0.005918
                 1.711743                 0.005998                 0.006001                 0.005998
                 1.721753                 0.006080                 0.006083                 0.006080
                 1.731764                 0.006163                 0.006166                 0.006163
                 1.741774                 0.006248                 0.006251                 0.006249
                 1.751784                 0.006335                 0.006338                 0.006336
                 1.761794                 0.006424                 0.006427                 0.006424
                 1.771804                 0.006514                 0.006518                 0.006515
                 1.781814                 0.006607                 0.006610                 0.006607
                 1.791825                 0.006701                 0.006704                 0.006702
                 1.801835                 0.006798                 0.006801                 0.006798
                 1.811845                 0.006896                 0.006899                 0.006896
                 1.821855                 0.006997                 0.007000                 0.006997
                 1.831865                 0.007099                 0.007103                 0.007100
                 1.841876                 0.007204                 0.007208                 0.007205
                 1.851886                 0.007312                 0.007316                 0.007313
                 1.861896                 0.007422                 0.007426                 0.007423
                 1.871906                 0.007534                 0.007538                 0.007535
                 1.881916                 0.007650                 0.007653                 0.007650
                 1.891927                 0.007768                 0.007771                 0.007768
                 1.901937                 0.007888                 0.007892                 0.007889
                 1.911947                 0.008012                 0.008016                 0.008013
                 1.921957                 0.008139                 0.008143                 0.008140
                 1.931967                 0.008269                 0.008273                 0.008270
                 1.941978                 0.008402                 0.008406                 0.008403
                 1.951988                 0.008539                 0.008543                 0.008540
                 1.961998                 0.008679                 0.008683                 0.008680
                 1.972008                 0.008823                 0.008828                 0.008824
                 1.982018                 0.008971                 0.008975                 0.008972
                 1.992029                 0.009123                 0.009127                 0.009124
                 2.002039                 0.009279                 0.009283                 0.009280
                 2.012049                 0.009439                 0.009444                 0.009440
                 2.022059                 0.009604                 0.009609                 0.009605
                 2.032069                 0.009773                 0.009778                 0.009775
                 2.042080                 0.009947                 0.009953                 0.009949
                 2.052090                 0.010127                 0.010132                 0.010129
                 2.062100                 0.010312                 0.010317                 0.010314
                 2.072110                 0.010502                 0.010507                 0.010504
                 2.082120                 0.010698                 0.010704                 0.010700
                 2.092130                 0.010900                 0.010906                 0.010902
                 2.102141                 0.011109                 0.011115                 0.011111
                 2.112151                 0.011324                 0.011330                 0.011326
                 2.122161                 0.011546                 0.011552                 0.011548
                 2.132171                 0.011775                 0.011781                 0.011778
                 2.142181                 0.012012                 0.012018                 0.012015
                 2.152192                 0.012256                 0.012263                 0.012260
                 2.162202                 0.012509                 0.012516                 0.012513
                 2.172212                 0.012771                 0.012778                 0.012775
                 2.182222                 0.013042                 0.013049                 0.013046
                 2.192232                 0.013322                 0.013330                 0.013327
                 2.202243                 0.013613                 0.013620                 0.013617
                 2.212253                 0.013914                 0.013922                 0.013919
                 2.222263                 0.014226                 0.014234                 0.014231
                 2.232273                 0.014550                 0.014558                 0.014556
                 2.242283                 0.014886                 0.014895                 0.014892
                 2.252294                 0.015236                 0.015245                 0.015242
                 2.262304                 0.015599                 0.015608                 0.015605
                 2.272314                 0.015976                 0.015986                 0.015983
                 2.282324                 0.016369                 0.016379                 0.016377
                 2.292334                 0.016778                 0.016788                 0.016786
                 2.302345                 0.017204                 0.017214                 0.017213
                 2.312355                 0.017648                 0.017659                 0.017657
                 2.322365                 0.018111                 0.018122                 0.018121
                 2.332375                 0.018594                 0.018606                 0.018605
                 2.342385                 0.019099                 0.019112                 0.019111
                 2.352396                 0.019627                 0.019640                 0.019640
                 2.362406                 0.020179                 0.020192                 0.020193
                 2.372416                 0.020756                 0.020770                 0.020771
                 2.382426                 0.021361                 0.021376                 0.021377
                 2.392436                 0.021996                 0.022011                 0.022013
                 2.402447                 0.022661                 0.022677                 0.022679
                 2.412457                 0.023359                 0.023376                 0.023379
                 2.422467                 0.024093                 0.024110                 0.024115
                 2.432477                 0.024865                 0.024883                 0.024888
                 2.442487                 0.025677                 0.025696                 0.025702
                 2.452497                 0.026532                 0.026552                 0.026559
                 2.462508                 0.027434                 0.027455                 0.027463
                 2.472518                 0.028385                 0.028407                 0.028417
                 2.482528                 0.029390                 0.029413                 0.029425
                 2.492538                 0.030452                 0.030477                 0.030490
                 2.502548                 0.031576                 0.031602                 0.031617
                 2.512559                 0.032766                 0.032794                 0.032811
                 2.522569                 0.034028                 0.034057                 0.034076
                 2.532579                 0.035367                 0.035398                 0.035419
                 2.542589                 0.036789                 0.036822                 0.036846
                 2.552599                 0.038301                 0.038336                 0.038363
                 2.562610                 0.039910                 0.039947                 0.039977
                 2.572620                 0.041624                 0.041663                 0.041697
                 2.582630                 0.043452                 0.043494                 0.043531
                 2.592640                 0.045403                 0.045447                 0.045488
                 2.602650                 0.047487                 0.047534                 0.047580
                 2.612661                 0.049715                 0.049766                 0.049816
                 2.622671                 0.052100                 0.052154                 0.052208
                 2.632681                 0.054654                 0.054712                 0.054771
                 2.642691                 0.057392                 0.057455                 0.057518
                 2.652701                 0.060328                 0.060396                 0.060463
                 2.662712                 0.063479                 0.063552                 0.063624
                 2.672722                 0.066863                 0.066942                 0.067017
                 2.682732                 0.070497                 0.070582                 0.070660
                 2.692742                 0.074400                 0.074493                 0.074572
                 2.702752                 0.078593                 0.078693                 0.078772
                 2.712763                 0.083096                 0.083204                 0.083280
                 2.722773                 0.087929                 0.088047                 0.088117
                 2.732783                 0.093113                 0.093240                 0.093300
                 2.742793                 0.098666                 0.098804                 0.098850
                 2.752803                 0.104606                 0.104755                 0.104781
                 2.762813                 0.110948                 0.111109                 0.111109
                 2.772824                 0.117702                 0.117875                 0.117842
                 2.782834                 0.124875                 0.125060                 0.124986
                 2.792844                 0.132464                 0.132660                 0.132539
                 2.802854                 0.140460                 0.140667                 0.140492
                 2.812864                 0.148843                 0.149060                 0.148824
                 2.822875                 0.157581                 0.157805                 0.157505
                 2.832885                 0.166628                 0.166857                 0.166492
                 2.842895                 0.175925                 0.176154                 0.175726
                 2.852905                 0.185394                 0.185619                 0.185134
                 2.862915                 0.194943                 0.195159                 0.194627
                 2.872926                 0.204467                 0.204668                 0.204103
                 2.882936                 0.213846                 0.214026                 0.213444
                 2.892946                 0.222953                 0.223106                 0.222526
                 2.902956                 0.231657                 0.231778                 0.231218
                 2.912966                 0.239827                 0.239914                 0.239390
                 2.922977                 0.247343                 0.247393                 0.246920
                 2.932987                 0.254098                 0.254110                 0.253698
                 2.942997                 0.260006                 0.259983                 0.259636
                 2.953007                 0.265009                 0.264953                 0.264671
                 2.963017                 0.269074                 0.268991                 0.268770
                 2.973028                 0.272201                 0.272096                 0.271927
                 2.983038                 0.274418                 0.274298                 0.274169
                 2.993048                 0.275777                 0.275647                 0.275546
                 3.003058                 0.276351                 0.276217                 0.276132
                 3.013068                 0.276227                 0.276095                 0.276012
                 3.023079                 0.275502                 0.275374                 0.275284
                 3.033089                 0.274273                 0.274154                 0.274046
                 3.043099                 0.272638                 0.272528                 0.272397
                 3.053109                 0.270687                 0.270586                 0.270425
                 3.063119                 0.268500                 0.268406                 0.268215
                 3.073129                 0.266147                 0.266058                 0.265835
                 3.083140                 0.263687                 0.263598                 0.263346
                 3.093150                 0.261165                 0.261071                 0.260795
                 3.103160                 0.258614                 0.258511                 0.258217
                 3.113170                 0.256060                 0.255943                 0.255638
                 3.123180                 0.253517                 0.253380                 0.253074
                 3.133191                 0.250991                 0.250832                 0.250536
                 3.143201                 0.248486                 0.248301                 0.248025
                 3.153211                 0.245999                 0.245788                 0.245542
                 3.163221                 0.243526                 0.243290                 0.243084
                 3.173231                 0.241063                 0.240804                 0.240645
                 3.183242                 0.238605                 0.238327                 0.238221
                 3.193252                 0.236151                 0.235859                 0.235808
                 3.203262                 0.233698                 0.233398                 0.233404
                 3.213272                 0.231246                 0.230946                 0.231007
                 3.223282                 0.228798                 0.228503                 0.228615
                 3.233293                 0.226355                 0.226072                 0.226229
                 3.243303                 0.223920                 0.223652                 0.223848
                 3.253313                 0.221493                 0.221245                 0.221472
                 3.263323                 0.219078                 0.218851                 0.219101
                 3.273333                 0.216674                 0.216471                 0.216735
                 3.283344                 0.214284                 0.214103                 0.214374
                 3.293354                 0.211907                 0.211747                 0.212018
                 3.303364                 0.209544                 0.209403                 0.209668
                 3.313374                 0.207196                 0.207073                 0.207325
                 3.323384                 0.204865                 0.204757                 0.204992
                 3.333395                 0.202552                 0.202458                 0.202672
                 3.343405                 0.200259                 0.200178                 0.200367
                 3.353415                 0.197988                 0.197920                 0.198082
                 3.363425                 0.195741                 0.195686                 0.195818
                 3.373435                 0.193518                 0.193477                 0.193579
                 3.383445                 0.191321                 0.191295                 0.191366
                 3.393456                 0.189149                 0.189141                 0.189180
                 3.403466                 0.187003                 0.187012                 0.187021
                 3.413476                 0.184880                 0.184910                 0.184888
                 3.423486                 0.182781                 0.182831                 0.182783
                 3.433496                 0.180705                 0.180778                 0.180704
                 3.443507                 0.178655                 0.178749                 0.178654
                 3.453517                 0.176632                 0.176747                 0.176635
                 3.463527                 0.174642                 0.174777                 0.174652
                 3.473537                 0.172692                 0.172845                 0.172712
                 3.483547                 0.170792                 0.170960                 0.170822
                 3.493558                 0.168953                 0.169133                 0.168994
                 3.503568                 0.167186                 0.167377                 0.167240
                 3.513578                 0.165506                 0.165703                 0.165572
                 3.523588                 0.163926                 0.164127                 0.164002
                 3.533598                 0.162458                 0.162660                 0.162544
                 3.543609                 0.161115                 0.161315                 0.161208
                 3.553619                 0.159904                 0.160100                 0.160003
                 3.563629                 0.158832                 0.159022                 0.158936
                 3.573639                 0.157904                 0.158087                 0.158012
                 3.583649                 0.157120                 0.157294                 0.157231
                 3.593660                 0.156479                 0.156643                 0.156591
                 3.603670                 0.155976                 0.156130                 0.156091
                 3.613680                 0.155605                 0.155748                 0.155722
                 3.623690                 0.155358                 0.155490                 0.155477
                 3.633700                 0.155226                 0.155346                 0.155348
                 3.643711                 0.155199                 0.155307                 0.155324
                 3.653721                 0.155267                 0.155363                 0.155394
                 3.663731                 0.155420                 0.155502                 0.155549
                 3.673741                 0.155648                 0.155716                 0.155777
                 3.683751                 0.155942                 0.155996                 0.156071
                 3.693761                 0.156295                 0.156333                 0.156421
                 3.703772                 0.156699                 0.156721                 0.156819
                 3.713782                 0.157150                 0.157155                 0.157261
                 3.723792                 0.157643                 0.157630                 0.157742
                 3.733802                 0.158175                 0.158143                 0.158257
                 3.743812                 0.158745                 0.158694                 0.158806
                 3.753823                 0.159350                 0.159279                 0.159386
                 3.763833                 0.159990                 0.159900                 0.159997
                 3.773843                 0.160663                 0.160555                 0.160637
                 3.783853                 0.161368                 0.161242                 0.161307
                 3.793863                 0.162101                 0.161958                 0.162002
                 3.803874                 0.162857                 0.162699                 0.162720
                 3.813884                 0.163630                 0.163458                 0.163454
                 3.823894                 0.164411                 0.164227                 0.164197
                 3.833904                 0.165189                 0.164996                 0.164940
                 3.843914                 0.165951                 0.165751                 0.165671
                 3.853925                 0.166685                 0.166481                 0.166377
                 3.863935                 0.167375                 0.167170                 0.167046
                 3.873945                 0.168010                 0.167806                 0.167666
                 3.883955                 0.168575                 0.168376                 0.168224
                 3.893965                 0.169062                 0.168870                 0.168710
                 3.903976                 0.169463                 0.169281                 0.169119
                 3.913986                 0.169777                 0.169605                 0.169446
                 3.923996                 0.170002                 0.169844                 0.169691
                 3.934006                 0.170145                 0.170000                 0.169858
                 3.944016                 0.170212                 0.170082                 0.169954
                 3.954027                 0.170215                 0.170100                 0.169988
                 3.964037                 0.170167                 0.170065                 0.169973
                 3.974047                 0.170080                 0.169991                 0.169918
                 3.984057                 0.169968                 0.169890                 0.169837
                 3.994067                 0.169841                 0.169773                 0.169740
                 4.004078                 0.169710                 0.169649                 0.169636
                 4.014088                 0.169581                 0.169526                 0.169531
                 4.024098                 0.169459                 0.169409                 0.169430
                 4.034108                 0.169346                 0.169298                 0.169334
                 4.044118                 0.169241                 0.169195                 0.169243
                 4.054128                 0.169141                 0.169096                 0.169155
                 4.064139                 0.169044                 0.168998                 0.169066
                 4.074149                 0.168945                 0.168898                 0.168974
                 4.084159                 0.168839                 0.168792                 0.168874
                 4.094169                 0.168724                 0.168675                 0.168763
                 4.104179                 0.168594                 0.168545                 0.168638
                 4.114190                 0.168448                 0.168399                 0.168497
                 4.124200                 0.168283                 0.168234                 0.168338
                 4.134210                 0.168097                 0.168049                 0.168159
                 4.144220                 0.167889                 0.167843                 0.167960
                 4.154230                 0.167657                 0.167614                 0.167738
                 4.164241                 0.167400                 0.167361                 0.167492
                 4.174251                 0.167116                 0.167083                 0.167221
                 4.184261                 0.166804                 0.166778                 0.166923
                 4.194271                 0.166463                 0.166444                 0.166596
                 4.204281                 0.166091                 0.166082                 0.166239
                 4.214292                 0.165689                 0.165690                 0.165853
                 4.224302                 0.165258                 0.165270                 0.165437
                 4.234312                 0.164799                 0.164823                 0.164995
                 4.244322                 0.164318                 0.164355                 0.164530
                 4.254332                 0.163820                 0.163871                 0.164048
                 4.264343                 0.163314                 0.163378                 0.163557
                 4.274353                 0.162808                 0.162886                 0.163066
                 4.284363                 0.162312                 0.162406                 0.162585
                 4.294373                 0.161840                 0.161947                 0.162125
                 4.304383                 0.161400                 0.161522                 0.161698
                 4.314394                 0.161004                 0.161140                 0.161312
                 4.324404                 0.160662                 0.160811                 0.160979
                 4.334414                 0.160380                 0.160543                 0.160703
                 4.344424                 0.160165                 0.160341                 0.160493
                 4.354434                 0.160019                 0.160209                 0.160349
                 4.364444                 0.159945                 0.160148                 0.160275
                 4.374455                 0.159941                 0.160158                 0.160269
                 4.384465                 0.160006                 0.160236                 0.160328
                 4.394475                 0.160134                 0.160379                 0.160449
                 4.404485                 0.160321                 0.160581                 0.160627
                 4.414495                 0.160561                 0.160837                 0.160858
                 4.424506                 0.160850                 0.161141                 0.161134
                 4.434516                 0.161182                 0.161489                 0.161453
                 4.444526                 0.161552                 0.161875                 0.161810
                 4.454536                 0.161957                 0.162296                 0.162202
                 4.464546                 0.162393                 0.162748                 0.162625
                 4.474557                 0.162860                 0.163230                 0.163078
                 4.484567                 0.163356                 0.163740                 0.163560
                 4.494577                 0.163879                 0.164276                 0.164070
                 4.504587                 0.164430                 0.164839                 0.164607
                 4.514597                 0.165006                 0.165427                 0.165171
                 4.524608                 0.165607                 0.166038                 0.165758
                 4.534618                 0.166229                 0.166669                 0.166368
                 4.544628                 0.166870                 0.167318                 0.166996
                 4.554638                 0.167524                 0.167980                 0.167639
                 4.564648                 0.168184                 0.168648                 0.168289
                 4.574659                 0.168845                 0.169315                 0.168941
                 4.584669                 0.169498                 0.169974                 0.169585
                 4.594679                 0.170133                 0.170617                 0.170214
                 4.604689                 0.170744                 0.171234                 0.170818
                 4.614699                 0.171321                 0.171817                 0.171389
                 4.624710                 0.171857                 0.172359                 0.171918
                 4.634720                 0.172344                 0.172853                 0.172398
                 4.644730                 0.172777                 0.173293                 0.172823
                 4.654740                 0.173152                 0.173673                 0.173188
                 4.664750                 0.173467                 0.173993                 0.173491
                 4.674760                 0.173720                 0.174249                 0.173732
                 4.684771                 0.173912                 0.174443                 0.173912
                 4.694781                 0.174045                 0.174577                 0.174035
                 4.704791                 0.174125                 0.174655                 0.174104
                 4.714801                 0.174156                 0.174681                 0.174128
                 4.724811                 0.174145                 0.174663                 0.174114
                 4.734822                 0.174103                 0.174611                 0.174071
                 4.744832                 0.174037                 0.174533                 0.174010
                 4.754842                 0.173960                 0.174441                 0.173942
                 4.764852                 0.173882                 0.174346                 0.173877
                 4.774862                 0.173817                 0.174263                 0.173828
                 4.784873                 0.173776                 0.174202                 0.173806
                 4.794883                 0.173773                 0.174179                 0.173824
                 4.804893                 0.173820                 0.174206                 0.173892
                 4.814903                 0.173931                 0.174296                 0.174024
                 4.824913                 0.174117                 0.174461                 0.174230
                 4.834924                 0.174390                 0.174715                 0.174522
                 4.844934                 0.174762                 0.175069                 0.174910
                 4.854944                 0.175242                 0.175532                 0.175403
                 4.864954                 0.175839                 0.176113                 0.176011
                 4.874964                 0.176560                 0.176819                 0.176740
                 4.884975                 0.177411                 0.177657                 0.177595
                 4.894985                 0.178394                 0.178629                 0.178581
                 4.904995                 0.179512                 0.179738                 0.179699
                 4.915005                 0.180763                 0.180982                 0.180949
                 4.925015                 0.182146                 0.182359                 0.182328
                 4.935026                 0.183656                 0.183866                 0.183833
                 4.945036                 0.185286                 0.185496                 0.185458
                 4.955046                 0.187030                 0.187242                 0.187196
                 4.965056                 0.188879                 0.189094                 0.189038
                 4.975066                 0.190823                 0.191044                 0.190973
                 4.985076                 0.192850                 0.193080                 0.192992
                 4.995087                 0.194950                 0.195189                 0.195081
                 5.005097                 0.197109                 0.197359                 0.197228
                 5.015107                 0.199314                 0.199576                 0.199418
                 5.025117                 0.201550                 0.201824                 0.201639
                 5.035127                 0.203803                 0.204089                 0.203874
                 5.045138                 0.206058                 0.206355                 0.206109
                 5.055148                 0.208299                 0.208606                 0.208329
                 5.065158                 0.210512                 0.210828                 0.210521
                 5.075168                 0.212683                 0.213006                 0.212670
                 5.085178                 0.214799                 0.215126                 0.214764
                 5.095189                 0.216846                 0.217176                 0.216792
                 5.105199                 0.218815                 0.219146                 0.218742
                 5.115209                 0.220694                 0.221024                 0.220606
                 5.125219                 0.222475                 0.222804                 0.222376
                 5.135229                 0.224150                 0.224476                 0.224042
                 5.145240                 0.225711                 0.226034                 0.225598
                 5.155250                 0.227152                 0.227472                 0.227037
                 5.165260                 0.228467                 0.228783                 0.228353
                 5.175270                 0.229648                 0.229963                 0.229539
                 5.185280                 0.230691                 0.231005                 0.230589
                 5.195291                 0.231591                 0.231906                 0.231498
                 5.205301                 0.232343                 0.232659                 0.232261
                 5.215311                 0.232945                 0.233262                 0.232874
                 5.225321                 0.233392                 0.233713                 0.233335
                 5.235331                 0.233687                 0.234010                 0.233644
                 5.245342                 0.233830                 0.234156                 0.233802
                 5.255352                 0.233828                 0.234156                 0.233815
                 5.265362                 0.233687                 0.234016                 0.233690
                 5.275372                 0.233419                 0.233748                 0.233438
                 5.285382                 0.233039                 0.233366                 0.233073
                 5.295393                 0.232562                 0.232887                 0.232611
                 5.305403                 0.232007                 0.232329                 0.232071
                 5.315413                 0.231395                 0.231712                 0.231472
                 5.325423                 0.230746                 0.231057                 0.230832
                 5.335433                 0.230078                 0.230384                 0.230172
                 5.345443                 0.229410                 0.229711                 0.229508
                 5.355454                 0.228757                 0.229053                 0.228855
                 5.365464                 0.228132                 0.228424                 0.228227
                 5.375474                 0.227546                 0.227833                 0.227633
                 5.385484                 0.227004                 0.227289                 0.227081
                 5.395494                 0.226512                 0.226796                 0.226576
                 5.405505                 0.226073                 0.226357                 0.226123
                 5.415515                 0.225687                 0.225973                 0.225723
                 5.425525                 0.225356                 0.225645                 0.225378
                 5.435535                 0.225079                 0.225373                 0.225089
                 5.445545                 0.224856                 0.225156                 0.224856
                 5.455556                 0.224687                 0.224995                 0.224681
                 5.465566                 0.224573                 0.224889                 0.224564
                 5.475576                 0.224514                 0.224840                 0.224505
                 5.485586                 0.224511                 0.224848                 0.224508
                 5.495596                 0.224566                 0.224913                 0.224571
                 5.505607                 0.224679                 0.225038                 0.224698
                 5.515617                 0.224853                 0.225223                 0.224888
                 5.525627                 0.225089                 0.225469                 0.225145
                 5.535637                 0.225391                 0.225781                 0.225470
                 5.545647                 0.225761                 0.226161                 0.225866
                 5.555658                 0.226204                 0.226613                 0.226338
                 5.565668                 0.226725                 0.227143                 0.226890
                 5.575678                 0.227329                 0.227756                 0.227527
                 5.585688                 0.228024                 0.228460                 0.228255
                 5.595698                 0.228815                 0.229261                 0.229082
                 5.605709                 0.229710                 0.230166                 0.230013
                 5.615719                 0.230714                 0.231182                 0.231053
                 5.625729                 0.231832                 0.232313                 0.232207
                 5.635739                 0.233069                 0.233563                 0.233479
                 5.645749                 0.234424                 0.234933                 0.234869
                 5.655759                 0.235899                 0.236423                 0.236376
                 5.665770                 0.237489                 0.238029                 0.237997
                 5.675780                 0.239190                 0.239746                 0.239725
                 5.685790                 0.240994                 0.241567                 0.241553
                 5.695800                 0.242892                 0.243480                 0.243471
                 5.705810                 0.244874                 0.245476                 0.245466
                 5.715821                 0.246927                 0.247542                 0.247527
                 5.725831                 0.249038                 0.249664                 0.249639
                 5.735841                 0.251194                 0.251830                 0.251790
                 5.745851                 0.253383                 0.254027                 0.253968
                 5.755861                 0.255594                 0.256242                 0.256160
                 5.765872                 0.257815                 0.258466                 0.258357
                 5.775882                 0.260039                 0.260690                 0.260552
                 5.785892                 0.262259                 0.262908                 0.262738
                 5.795902                 0.264472                 0.265117                 0.264914
                 5.805912                 0.266676                 0.267315                 0.267078
                 5.815923                 0.268873                 0.269503                 0.269234
                 5.825933                 0.271065                 0.271685                 0.271383
                 5.835943                 0.273255                 0.273865                 0.273531
                 5.845953                 0.275449                 0.276046                 0.275682
                 5.855963                 0.277649                 0.278234                 0.277841
                 5.865974                 0.279858                 0.280431                 0.280010
                 5.875984                 0.282076                 0.282638                 0.282189
                 5.885994                 0.284303                 0.284854                 0.284379
                 5.896004                 0.286532                 0.287075                 0.286573
                 5.906014                 0.288756                 0.289292                 0.288766
                 5.916025                 0.290965                 0.291495                 0.290947
                 5.926035                 0.293145                 0.293672                 0.293103
                 5.936045                 0.295280                 0.295806                 0.295219
                 5.946055                 0.297354                 0.297881                 0.297278
                 5.956065                 0.299349                 0.299878                 0.299263
                 5.966075                 0.301245                 0.301778                 0.301156
                 5.976086                 0.303028                 0.303565                 0.302939
                 5.986096                 0.304681                 0.305225                 0.304598
                 5.996106                 0.306194                 0.306744                 0.306120
                 6.006116                 0.307559                 0.308116                 0.307499
                 6.016126                 0.308775                 0.309339                 0.308729
                 6.026137                 0.309843                 0.310414                 0.309815
                 6.036147                 0.310773                 0.311350                 0.310762
                 6.046157                 0.311577                 0.312161                 0.311585
                 6.056167                 0.312273                 0.312862                 0.312301
                 6.066177                 0.312882                 0.313476                 0.312929
                 6.076188                 0.313427                 0.314024                 0.313493
                 6.086198                 0.313931                 0.314530                 0.314015
                 6.096208                 0.314416                 0.315016                 0.314520
                 6.106218                 0.314904                 0.315504                 0.315028
                 6.116228                 0.315413                 0.316011                 0.315557
                 6.126239                 0.315957                 0.316552                 0.316121
                 6.136249                 0.316548                 0.317138                 0.316734
                 6.146259                 0.317193                 0.317776                 0.317401
                 6.156269                 0.317896                 0.318472                 0.318129
                 6.166279                 0.318661                 0.319228                 0.318920
                 6.176290                 0.319487                 0.320046                 0.319775
                 6.186300                 0.320377                 0.320926                 0.320694
                 6.196310                 0.321330                 0.321869                 0.321679
                 6.206320                 0.322346                 0.322876                 0.322730
                 6.216330                 0.323429                 0.323949                 0.323847
                 6.226341                 0.324580                 0.325092                 0.325033
                 6.236351                 0.325802                 0.326306                 0.326287
                 6.246361                 0.327097                 0.327594                 0.327612
                 6.256371                 0.328465                 0.328957                 0.329007
                 6.266381                 0.329907                 0.330396                 0.330470
                 6.276391                 0.331421                 0.331907                 0.331997
                 6.286402                 0.333002                 0.333487                 0.333583
                 6.296412                 0.334641                 0.335128                 0.335220
                 6.306422                 0.336330                 0.336819                 0.336897
                 6.316432                 0.338056                 0.338549                 0.338602
                 6.326442                 0.339805                 0.340303                 0.340321
                 6.336453                 0.341559                 0.342064                 0.342039
                 6.346463                 0.343303                 0.343816                 0.343741
                 6.356473                 0.345019                 0.345542                 0.345411
                 6.366483                 0.346690                 0.347223                 0.347035
                 6.376493                 0.348301                 0.348844                 0.348598
                 6.386504                 0.349838                 0.350391                 0.350089
                 6.396514                 0.351289                 0.351852                 0.351498
                 6.406524                 0.352646                 0.353219                 0.352818
                 6.416534                 0.353905                 0.354485                 0.354047
                 6.426544                 0.355066                 0.355652                 0.355185
                 6.436555                 0.356134                 0.356723                 0.356237
                 6.446565                 0.357118                 0.357707                 0.357213
                 6.456575                 0.358033                 0.358618                 0.358125
                 6.466585                 0.358896                 0.359474                 0.358993
                 6.476595                 0.359730                 0.360298                 0.359837
                 6.486606                 0.360560                 0.361113                 0.360681
                 6.496616                 0.361412                 0.361948                 0.361552
                 6.506626                 0.362314                 0.362829                 0.362475
                 6.516636                 0.363291                 0.363783                 0.363477
                 6.526646                 0.364370                 0.364835                 0.364582
                 6.536657                 0.365572                 0.366010                 0.365813
                 6.546667                 0.366916                 0.367325                 0.367189
                 6.556677                 0.368417                 0.368797                 0.368723
                 6.566687                 0.370086                 0.370437                 0.370428
                 6.576697                 0.371928                 0.372249                 0.372306
                 6.586707                 0.373943                 0.374235                 0.374357
                 6.596718                 0.376122                 0.376387                 0.376573
                 6.606728                 0.378453                 0.378693                 0.378940
                 6.616738                 0.380916                 0.381133                 0.381438
                 6.626748                 0.383485                 0.383683                 0.384040
                 6.636758                 0.386129                 0.386312                 0.386713
                 6.646769                 0.388814                 0.388985                 0.389423
                 6.656779                 0.391502                 0.391665                 0.392132
                 6.666789                 0.394156                 0.394316                 0.394802
                 6.676799                 0.396741                 0.396903                 0.397396
                 6.686809                 0.399226                 0.399394                 0.399884
                 6.696820                 0.401583                 0.401763                 0.402237
                 6.706830                 0.403795                 0.403991                 0.404438
                 6.716840                 0.405848                 0.406063                 0.406471
                 6.726850                 0.407736                 0.407974                 0.408331
                 6.736860                 0.409459                 0.409722                 0.410017
                 6.746871                 0.411020                 0.411310                 0.411534
                 6.756881                 0.412427                 0.412744                 0.412888
                 6.766891                 0.413687                 0.414032                 0.414088
                 6.776901                 0.414809                 0.415182                 0.415146
                 6.786911                 0.415804                 0.416203                 0.416070
                 6.796922                 0.416679                 0.417104                 0.416873
                 6.806932                 0.417445                 0.417892                 0.417565
                 6.816942                 0.418110                 0.418578                 0.418158
                 6.826952                 0.418687                 0.419172                 0.418663
                 6.836962                 0.419187                 0.419685                 0.419096
                 6.846973                 0.419624                 0.420134                 0.419471
                 6.856983                 0.420015                 0.420532                 0.419807
                 6.866993                 0.420378                 0.420900                 0.420123
                 6.877003                 0.420732                 0.421255                 0.420438
                 6.887013                 0.421096                 0.421618                 0.420774
                 6.897024                 0.421490                 0.422009                 0.421150
                 6.907034                 0.421932                 0.422445                 0.421586
                 6.917044                 0.422438                 0.422944                 0.422097
                 6.927054                 0.423023                 0.423520                 0.422698
                 6.937064                 0.423697                 0.424183                 0.423399
                 6.947074                 0.424467                 0.424942                 0.424206
                 6.957085                 0.425339                 0.425799                 0.425121
                 6.967095                 0.426310                 0.426755                 0.426144
                 6.977105                 0.427378                 0.427806                 0.427267
                 6.987115                 0.428537                 0.428944                 0.428481
                 6.997125                 0.429774                 0.430161                 0.429774
                 7.007136                 0.431078                 0.431443                 0.431130
                 7.017146                 0.432432                 0.432775                 0.432531
                 7.027156                 0.433818                 0.434139                 0.433958
                 7.037166                 0.435216                 0.435515                 0.435389
                 7.047176                 0.436605                 0.436884                 0.436804
                 7.057187                 0.437962                 0.438223                 0.438179
                 7.067197                 0.439266                 0.439512                 0.439496
                 7.077207                 0.440496                 0.440729                 0.440734
                 7.087217                 0.441634                 0.441857                 0.441879
                 7.097227                 0.442666                 0.442881                 0.442916
                 7.107238                 0.443582                 0.443792                 0.443838
                 7.117248                 0.444379                 0.444586                 0.444641
                 7.127258                 0.445057                 0.445264                 0.445327
                 7.137268                 0.445624                 0.445832                 0.445903
                 7.147278                 0.446091                 0.446303                 0.446380
                 7.157289                 0.446474                 0.446692                 0.446770
                 7.167299                 0.446788                 0.447015                 0.447089
                 7.177309                 0.447052                 0.447292                 0.447353
                 7.187319                 0.447281                 0.447537                 0.447577
                 7.197329                 0.447488                 0.447765                 0.447774
                 7.207340                 0.447684                 0.447985                 0.447951
                 7.217350                 0.447875                 0.448204                 0.448116
                 7.227360                 0.448062                 0.448422                 0.448270
                 7.237370                 0.448242                 0.448636                 0.448411
                 7.247380                 0.448412                 0.448841                 0.448537
                 7.257390                 0.448564                 0.449028                 0.448640
                 7.267401                 0.448690                 0.449188                 0.448715
                 7.277411                 0.448783                 0.449312                 0.448756
                 7.287421                 0.448835                 0.449390                 0.448756
                 7.297431                 0.448842                 0.449418                 0.448714
                 7.307441                 0.448801                 0.449391                 0.448628
                 7.317452                 0.448711                 0.449308                 0.448498
                 7.327462                 0.448574                 0.449170                 0.448327
                 7.337472                 0.448393                 0.448980                 0.448118
                 7.347482                 0.448173                 0.448745                 0.447877
                 7.357492                 0.447919                 0.448470                 0.447609
                 7.367503                 0.447636                 0.448161                 0.447319
                 7.377513                 0.447329                 0.447826                 0.447010
                 7.387523                 0.447002                 0.447469                 0.446686
                 7.397533                 0.446657                 0.447094                 0.446348
                 7.407543                 0.446295                 0.446705                 0.445997
                 7.417554                 0.445916                 0.446304                 0.445633
                 7.427564                 0.445522                 0.445890                 0.445256
                 7.437574                 0.445111                 0.445466                 0.444865
                 7.447584                 0.444685                 0.445032                 0.444462
                 7.457594                 0.444246                 0.444591                 0.444048
                 7.467605                 0.443799                 0.444147                 0.443628
                 7.477615                 0.443351                 0.443707                 0.443209
                 7.487625                 0.442911                 0.443278                 0.442801
                 7.497635                 0.442492                 0.442873                 0.442417
                 7.507645                 0.442108                 0.442507                 0.442071
                 7.517656                 0.441776                 0.442193                 0.441779
                 7.527666                 0.441514                 0.441951                 0.441558
                 7.537676                 0.441337                 0.441795                 0.441426
                 7.547686                 0.441263                 0.441741                 0.441396
                 7.557696                 0.441305                 0.441804                 0.441483
                 7.567706                 0.441472                 0.441992                 0.441695
                 7.577717                 0.441770                 0.442312                 0.442036
                 7.587727                 0.442201                 0.442764                 0.442508
                 7.597737                 0.442759                 0.443344                 0.443103
                 7.607747                 0.443433                 0.444041                 0.443809
                 7.617757                 0.444206                 0.444837                 0.444608
                 7.627768                 0.445054                 0.445709                 0.445477
                 7.637778                 0.445947                 0.446626                 0.446384
                 7.647788                 0.446851                 0.447555                 0.447295
                 7.657798                 0.447727                 0.448455                 0.448171
                 7.667808                 0.448533                 0.449285                 0.448971
                 7.677819                 0.449227                 0.450001                 0.449655
                 7.687829                 0.449768                 0.450563                 0.450180
                 7.697839                 0.450119                 0.450932                 0.450511
                 7.707849                 0.450247                 0.451076                 0.450617
                 7.717859                 0.450128                 0.450968                 0.450473
                 7.727870                 0.449744                 0.450592                 0.450063
                 7.737880                 0.449089                 0.449940                 0.449381
                 7.747890                 0.448164                 0.449013                 0.448426
                 7.757900                 0.446977                 0.447820                 0.447209
                 7.767910                 0.445545                 0.446377                 0.445745
                 7.777921                 0.443888                 0.444705                 0.444055
                 7.787931                 0.442032                 0.442829                 0.442163
                 7.797941                 0.440003                 0.440776                 0.440095
                 7.807951                 0.437829                 0.438574                 0.437879
                 7.817961                 0.435538                 0.436252                 0.435544
                 7.827972                 0.433159                 0.433837                 0.433117
                 7.837982                 0.430719                 0.431359                 0.430628
                 7.847992                 0.428247                 0.428846                 0.428105
                 7.858002                 0.425771                 0.426327                 0.425577
                 7.868012                 0.423322                 0.423832                 0.423075
                 7.878022                 0.420927                 0.421390                 0.420629
                 7.888033                 0.418618                 0.419032                 0.418270
                 7.898043                 0.416422                 0.416787                 0.416027
                 7.908053                 0.414368                 0.414685                 0.413930
                 7.918063                 0.412483                 0.412752                 0.412005
                 7.928073                 0.410791                 0.411014                 0.410279
                 7.938084                 0.409316                 0.409495                 0.408774
                 7.948094                 0.408076                 0.408214                 0.407509
                 7.958104                 0.407086                 0.407186                 0.406500
                 7.968114                 0.406360                 0.406426                 0.405759
                 7.978124                 0.405906                 0.405941                 0.405296
                 7.988135                 0.405729                 0.405737                 0.405115
                 7.998145                 0.405829                 0.405814                 0.405216
                 8.008155                 0.406203                 0.406169                 0.405596
                 8.018165                 0.406845                 0.406796                 0.406247
                 8.028175                 0.407742                 0.407683                 0.407159
                 8.038186                 0.408881                 0.408816                 0.408316
                 8.048196                 0.410243                 0.410176                 0.409699
                 8.058206                 0.411807                 0.411741                 0.411287
                 8.068216                 0.413547                 0.413487                 0.413055
                 8.078226                 0.415439                 0.415386                 0.414975
                 8.088237                 0.417451                 0.417409                 0.417018
                 8.098247                 0.419556                 0.419527                 0.419153
                 8.108257                 0.421721                 0.421708                 0.421351
                 8.118267                 0.423919                 0.423921                 0.423580
                 8.128277                 0.426120                 0.426140                 0.425812
                 8.138288                 0.428299                 0.428336                 0.428020
                 8.148298                 0.430432                 0.430486                 0.430179
                 8.158308                 0.432498                 0.432569                 0.432268
                 8.168318                 0.434480                 0.434568                 0.434269
                 8.178328                 0.436365                 0.436467                 0.436168
                 8.188338                 0.438141                 0.438256                 0.437952
                 8.198349                 0.439801                 0.439926                 0.439614
                 8.208359                 0.441339                 0.441472                 0.441148
                 8.218369                 0.442751                 0.442890                 0.442552
                 8.228379                 0.444038                 0.444178                 0.443824
                 8.238389                 0.445199                 0.445339                 0.444967
                 8.248400                 0.446238                 0.446376                 0.445984
                 8.258410                 0.447159                 0.447291                 0.446880
                 8.268420                 0.447966                 0.448093                 0.447662
                 8.278430                 0.448665                 0.448786                 0.448337
                 8.288440                 0.449263                 0.449379                 0.448912
                 8.298451                 0.449764                 0.449878                 0.449392
                 8.308461                 0.450172                 0.450287                 0.449785
                 8.318471                 0.450492                 0.450612                 0.450094
                 8.328481                 0.450723                 0.450853                 0.450321
                 8.338491                 0.450867                 0.451012                 0.450465
                 8.348502                 0.450920                 0.451086                 0.450526
                 8.358512                 0.450880                 0.451071                 0.450500
                 8.368522                 0.450742                 0.450962                 0.450383
                 8.378532                 0.450503                 0.450754                 0.450171
                 8.388542                 0.450159                 0.450442                 0.449860
                 8.398553                 0.449708                 0.450023                 0.449449
                 8.408563                 0.449151                 0.449494                 0.448935
                 8.418573                 0.448489                 0.448855                 0.448321
                 8.428583                 0.447726                 0.448111                 0.447611
                 8.438593                 0.446872                 0.447267                 0.446810
                 8.448604                 0.445934                 0.446332                 0.445929
                 8.458614                 0.444926                 0.445319                 0.444976
                 8.468624                 0.443860                 0.444240                 0.443965
                 8.478634                 0.442751                 0.443113                 0.442909
                 8.488644                 0.441613                 0.441952                 0.441822
                 8.498655                 0.440462                 0.440775                 0.440716
                 8.508665                 0.439310                 0.439597                 0.439605
                 8.518675                 0.438171                 0.438433                 0.438502
                 8.528685                 0.437055                 0.437296                 0.437416
                 8.538695                 0.435970                 0.436195                 0.436356
                 8.548705                 0.434925                 0.435140                 0.435329
                 8.558716                 0.433923                 0.434137                 0.434342
                 8.568726                 0.432970                 0.433189                 0.433398
                 8.578736                 0.432067                 0.432300                 0.432500
                 8.588746                 0.431216                 0.431470                 0.431651
                 8.598756                 0.430418                 0.430698                 0.430852
                 8.608767                 0.429674                 0.429985                 0.430103
                 8.618777                 0.428983                 0.429327                 0.429404
                 8.628787                 0.428346                 0.428723                 0.428754
                 8.638797                 0.427759                 0.428168                 0.428152
                 8.648807                 0.427223                 0.427660                 0.427596
                 8.658818                 0.426734                 0.427195                 0.427084
                 8.668828                 0.426290                 0.426768                 0.426612
                 8.678838                 0.425888                 0.426375                 0.426177
                 8.688848                 0.425523                 0.426013                 0.425776
                 8.698858                 0.425192                 0.425677                 0.425405
                 8.708869                 0.424890                 0.425362                 0.425059
                 8.718879                 0.424612                 0.425065                 0.424734
                 8.728889                 0.424351                 0.424780                 0.424423
                 8.738899                 0.424101                 0.424502                 0.424120
                 8.748909                 0.423854                 0.424225                 0.423817
                 8.758920                 0.423603                 0.423941                 0.423506
                 8.768930                 0.423339                 0.423644                 0.423180
                 8.778940                 0.423054                 0.423326                 0.422831
                 8.788950                 0.422741                 0.422980                 0.422451
                 8.798960                 0.422394                 0.422601                 0.422035
                 8.808971                 0.422008                 0.422184                 0.421581
                 8.818981                 0.421580                 0.421728                 0.421086
                 8.828991                 0.421111                 0.421231                 0.420552
                 8.839001                 0.420604                 0.420697                 0.419983
                 8.849011                 0.420062                 0.420130                 0.419386
                 8.859021                 0.419491                 0.419536                 0.418767
                 8.869032                 0.418901                 0.418924                 0.418137
                 8.879042                 0.418300                 0.418303                 0.417505
                 8.889052                 0.417698                 0.417682                 0.416881
                 8.899062                 0.417105                 0.417071                 0.416277
                 8.909072                 0.416530                 0.416481                 0.415701
                 8.919083                 0.415985                 0.415922                 0.415165
                 8.929093                 0.415479                 0.415403                 0.414677
                 8.939103                 0.415025                 0.414936                 0.414248
                 8.949113                 0.414632                 0.414532                 0.413887
                 8.959123                 0.414311                 0.414200                 0.413605
                 8.969134                 0.414076                 0.413953                 0.413411
                 8.979144                 0.413935                 0.413800                 0.413317
                 8.989154                 0.413901                 0.413753                 0.413331
                 8.999164                 0.413981                 0.413820                 0.413463
                 9.009174                 0.414184                 0.414009                 0.413719
                 9.019185                 0.414515                 0.414324                 0.414102
                 9.029195                 0.414974                 0.414768                 0.414616
                 9.039205                 0.415560                 0.415338                 0.415256
                 9.049215                 0.416269                 0.416030                 0.416019
                 9.059225                 0.417090                 0.416835                 0.416893
                 9.069236                 0.418013                 0.417740                 0.417866
                 9.079246                 0.419021                 0.418730                 0.418922
                 9.089256                 0.420099                 0.419790                 0.420045
                 9.099266                 0.421226                 0.420899                 0.421214
                 9.109276                 0.422386                 0.422040                 0.422409
                 9.119287                 0.423558                 0.423194                 0.423611
                 9.129297                 0.424724                 0.424342                 0.424801
                 9.139307                 0.425867                 0.425468                 0.425960
                 9.149317                 0.426972                 0.426557                 0.427073
                 9.159327                 0.428024                 0.427596                 0.428126
                 9.169337                 0.429012                 0.428572                 0.429107
                 9.179348                 0.429926                 0.429477                 0.430007
                 9.189358                 0.430760                 0.430304                 0.430822
                 9.199368                 0.431508                 0.431049                 0.431547
                 9.209378                 0.432169                 0.431709                 0.432182
                 9.219388                 0.432745                 0.432288                 0.432730
                 9.229399                 0.433238                 0.432786                 0.433196
                 9.239409                 0.433654                 0.433211                 0.433587
                 9.249419                 0.434002                 0.433570                 0.433911
                 9.259429                 0.434291                 0.433872                 0.434178
                 9.269439                 0.434530                 0.434126                 0.434399
                 9.279450                 0.434730                 0.434340                 0.434583
                 9.289460                 0.434899                 0.434525                 0.434738
                 9.299470                 0.435045                 0.434687                 0.434873
                 9.309480                 0.435173                 0.434831                 0.434993
                 9.319490                 0.435287                 0.434962                 0.435100
                 9.329501                 0.435389                 0.435079                 0.435197
                 9.339511                 0.435476                 0.435183                 0.435282
                 9.349521                 0.435545                 0.435269                 0.435351
                 9.359531                 0.435588                 0.435332                 0.435399
                 9.369541                 0.435598                 0.435363                 0.435417
                 9.379552                 0.435564                 0.435354                 0.435396
                 9.389562                 0.435475                 0.435292                 0.435324
                 9.399572                 0.435318                 0.435167                 0.435190
                 9.409582                 0.435082                 0.434965                 0.434981
                 9.419592                 0.434753                 0.434675                 0.434685
                 9.429603                 0.434321                 0.434285                 0.434290
                 9.439613                 0.433778                 0.433787                 0.433787
                 9.449623                 0.433116                 0.433172                 0.433167
                 9.459633                 0.432330                 0.432436                 0.432424
                 9.469643                 0.431419                 0.431574                 0.431556
                 9.479653                 0.430381                 0.430586                 0.430559
                 9.489664                 0.429219                 0.429474                 0.429436
                 9.499674                 0.427936                 0.428239                 0.428189
                 9.509684                 0.426536                 0.426886                 0.426821
                 9.519694                 0.425026                 0.425421                 0.425338
                 9.529704                 0.423413                 0.423851                 0.423747
                 9.539715                 0.421706                 0.422183                 0.422056
                 9.549725                 0.419916                 0.420429                 0.420277
                 9.559735                 0.418056                 0.418599                 0.418422
                 9.569745                 0.416142                 0.416710                 0.416507
                 9.579755                 0.414192                 0.414778                 0.414551
                 9.589766                 0.412228                 0.412826                 0.412575
                 9.599776                 0.410276                 0.410876                 0.410606
                 9.609786                 0.408362                 0.408956                 0.408671
                 9.619796                 0.406517                 0.407096                 0.406799
                 9.629806                 0.404771                 0.405326                 0.405022
                 9.639817                 0.403155                 0.403677                 0.403372
                 9.649827                 0.401698                 0.402178                 0.401876
                 9.659837                 0.400426                 0.400858                 0.400563
                 9.669847                 0.399364                 0.399740                 0.399458
                 9.679857                 0.398532                 0.398845                 0.398579
                 9.689868                 0.397943                 0.398190                 0.397942
                 9.699878                 0.397608                 0.397784                 0.397558
                 9.709888                 0.397532                 0.397635                 0.397433
                 9.719898                 0.397716                 0.397742                 0.397568
                 9.729908                 0.398154                 0.398104                 0.397957
                 9.739919                 0.398836                 0.398711                 0.398594
                 9.749929                 0.399749                 0.399550                 0.399465
                 9.759939                 0.400875                 0.400603                 0.400553
                 9.769949                 0.402190                 0.401850                 0.401835
                 9.779959                 0.403669                 0.403264                 0.403285
                 9.789969                 0.405279                 0.404814                 0.404874
                 9.799980                 0.406987                 0.406468                 0.406568
                 9.809990                 0.408757                 0.408189                 0.408329
                 9.820000                 0.410549                 0.409939                 0.410120
                 9.830010                 0.412325                 0.411679                 0.411899
                 9.840020                 0.414046                 0.413370                 0.413630
                 9.850031                 0.415675                 0.414975                 0.415273
                 9.860041                 0.417182                 0.416463                 0.416798
                 9.870051                 0.418539                 0.417806                 0.418175
                 9.880061                 0.419725                 0.418984                 0.419384
                 9.890071                 0.420728                 0.419983                 0.420412
                 9.900082                 0.421544                 0.420798                 0.421254
                 9.910092                 0.422176                 0.421433                 0.421913
                 9.920102                 0.422636                 0.421898                 0.422399
                 9.930112                 0.422941                 0.422214                 0.422733
                 9.940122                 0.423119                 0.422404                 0.422938
                 9.950133                 0.423199                 0.422499                 0.423045
                 9.960143                 0.423216                 0.422535                 0.423090
                 9.970153                 0.423208                 0.422548                 0.423110
                 9.980163                 0.423213                 0.422577                 0.423144
                 9.990173                 0.423271                 0.422659                 0.423229
                10.000184                 0.423417                 0.422831                 0.423403
