#        Energy grid [eV]               JDOS/w^2
#
                 0.000000                 Infinity
                 0.010010                 0.006052
                 0.020020                 0.003030
                 0.030031                 0.002024
                 0.040041                 0.001523
                 0.050051                 0.001223
                 0.060061                 0.001024
                 0.070071                 0.000883
                 0.080082                 0.000778
                 0.090092                 0.000697
                 0.100102                 0.000632
                 0.110112                 0.000580
                 0.120122                 0.000537
                 0.130133                 0.000501
                 0.140143                 0.000471
                 0.150153                 0.000445
                 0.160163                 0.000423
                 0.170173                 0.000404
                 0.180183                 0.000387
                 0.190194                 0.000372
                 0.200204                 0.000360
                 0.210214                 0.000348
                 0.220224                 0.000338
                 0.230234                 0.000330
                 0.240245                 0.000322
                 0.250255                 0.000316
                 0.260265                 0.000310
                 0.270275                 0.000305
                 0.280285                 0.000300
                 0.290296                 0.000296
                 0.300306                 0.000293
                 0.310316                 0.000291
                 0.320326                 0.000288
                 0.330336                 0.000287
                 0.340347                 0.000285
                 0.350357                 0.000284
                 0.360367                 0.000284
                 0.370377                 0.000284
                 0.380387                 0.000284
                 0.390398                 0.000284
                 0.400408                 0.000285
                 0.410418                 0.000286
                 0.420428                 0.000288
                 0.430438                 0.000290
                 0.440449                 0.000292
                 0.450459                 0.000294
                 0.460469                 0.000297
                 0.470479                 0.000299
                 0.480489                 0.000303
                 0.490499                 0.000306
                 0.500510                 0.000310
                 0.510520                 0.000314
                 0.520530                 0.000318
                 0.530540                 0.000322
                 0.540550                 0.000327
                 0.550561                 0.000332
                 0.560571                 0.000338
                 0.570581                 0.000343
                 0.580591                 0.000349
                 0.590601                 0.000356
                 0.600612                 0.000362
                 0.610622                 0.000369
                 0.620632                 0.000377
                 0.630642                 0.000384
                 0.640652                 0.000392
                 0.650663                 0.000400
                 0.660673                 0.000409
                 0.670683                 0.000418
                 0.680693                 0.000427
                 0.690703                 0.000437
                 0.700714                 0.000448
                 0.710724                 0.000458
                 0.720734                 0.000469
                 0.730744                 0.000481
                 0.740754                 0.000493
                 0.750765                 0.000505
                 0.760775                 0.000518
                 0.770785                 0.000532
                 0.780795                 0.000546
                 0.790805                 0.000560
                 0.800816                 0.000576
                 0.810826                 0.000591
                 0.820836                 0.000608
                 0.830846                 0.000625
                 0.840856                 0.000642
                 0.850866                 0.000661
                 0.860877                 0.000680
                 0.870887                 0.000699
                 0.880897                 0.000720
                 0.890907                 0.000741
                 0.900917                 0.000764
                 0.910928                 0.000787
                 0.920938                 0.000811
                 0.930948                 0.000835
                 0.940958                 0.000861
                 0.950968                 0.000888
                 0.960979                 0.000916
                 0.970989                 0.000945
                 0.980999                 0.000975
                 0.991009                 0.001006
                 1.001019                 0.001038
                 1.011030                 0.001072
                 1.021040                 0.001107
                 1.031050                 0.001143
                 1.041060                 0.001181
                 1.051070                 0.001220
                 1.061081                 0.001261
                 1.071091                 0.001303
                 1.081101                 0.001347
                 1.091111                 0.001393
                 1.101121                 0.001441
                 1.111132                 0.001490
                 1.121142                 0.001541
                 1.131152                 0.001595
                 1.141162                 0.001650
                 1.151172                 0.001708
                 1.161182                 0.001768
                 1.171193                 0.001830
                 1.181203                 0.001895
                 1.191213                 0.001962
                 1.201223                 0.002032
                 1.211233                 0.002105
                 1.221244                 0.002181
                 1.231254                 0.002260
                 1.241264                 0.002342
                 1.251274                 0.002427
                 1.261284                 0.002516
                 1.271295                 0.002608
                 1.281305                 0.002704
                 1.291315                 0.002803
                 1.301325                 0.002907
                 1.311335                 0.003015
                 1.321346                 0.003128
                 1.331356                 0.003245
                 1.341366                 0.003366
                 1.351376                 0.003493
                 1.361386                 0.003625
                 1.371397                 0.003762
                 1.381407                 0.003905
                 1.391417                 0.004053
                 1.401427                 0.004208
                 1.411437                 0.004369
                 1.421448                 0.004537
                 1.431458                 0.004711
                 1.441468                 0.004893
                 1.451478                 0.005082
                 1.461488                 0.005279
                 1.471498                 0.005485
                 1.481509                 0.005698
                 1.491519                 0.005921
                 1.501529                 0.006153
                 1.511539                 0.006394
                 1.521549                 0.006646
                 1.531560                 0.006908
                 1.541570                 0.007181
                 1.551580                 0.007465
                 1.561590                 0.007761
                 1.571600                 0.008070
                 1.581611                 0.008391
                 1.591621                 0.008726
                 1.601631                 0.009075
                 1.611641                 0.009439
                 1.621651                 0.009818
                 1.631662                 0.010213
                 1.641672                 0.010625
                 1.651682                 0.011054
                 1.661692                 0.011502
                 1.671702                 0.011968
                 1.681713                 0.012454
                 1.691723                 0.012960
                 1.701733                 0.013489
                 1.711743                 0.014039
                 1.721753                 0.014613
                 1.731764                 0.015211
                 1.741774                 0.015835
                 1.751784                 0.016486
                 1.761794                 0.017164
                 1.771804                 0.017871
                 1.781814                 0.018608
                 1.791825                 0.019377
                 1.801835                 0.020179
                 1.811845                 0.021015
                 1.821855                 0.021887
                 1.831865                 0.022796
                 1.841876                 0.023744
                 1.851886                 0.024733
                 1.861896                 0.025765
                 1.871906                 0.026840
                 1.881916                 0.027963
                 1.891927                 0.029133
                 1.901937                 0.030353
                 1.911947                 0.031627
                 1.921957                 0.032955
                 1.931967                 0.034340
                 1.941978                 0.035785
                 1.951988                 0.037292
                 1.961998                 0.038864
                 1.972008                 0.040504
                 1.982018                 0.042214
                 1.992029                 0.043999
                 2.002039                 0.045860
                 2.012049                 0.047802
                 2.022059                 0.049827
                 2.032069                 0.051939
                 2.042080                 0.054143
                 2.052090                 0.056441
                 2.062100                 0.058838
                 2.072110                 0.061339
                 2.082120                 0.063947
                 2.092130                 0.066667
                 2.102141                 0.069504
                 2.112151                 0.072462
                 2.122161                 0.075548
                 2.132171                 0.078766
                 2.142181                 0.082122
                 2.152192                 0.085621
                 2.162202                 0.089269
                 2.172212                 0.093073
                 2.182222                 0.097040
                 2.192232                 0.101174
                 2.202243                 0.105485
                 2.212253                 0.109978
                 2.222263                 0.114661
                 2.232273                 0.119542
                 2.242283                 0.124628
                 2.252294                 0.129928
                 2.262304                 0.135450
                 2.272314                 0.141202
                 2.282324                 0.147195
                 2.292334                 0.153436
                 2.302345                 0.159936
                 2.312355                 0.166704
                 2.322365                 0.173751
                 2.332375                 0.181086
                 2.342385                 0.188720
                 2.352396                 0.196664
                 2.362406                 0.204929
                 2.372416                 0.213526
                 2.382426                 0.222468
                 2.392436                 0.231766
                 2.402447                 0.241431
                 2.412457                 0.251477
                 2.422467                 0.261915
                 2.432477                 0.272758
                 2.442487                 0.284019
                 2.452497                 0.295712
                 2.462508                 0.307848
                 2.472518                 0.320440
                 2.482528                 0.333503
                 2.492538                 0.347049
                 2.502548                 0.361091
                 2.512559                 0.375642
                 2.522569                 0.390716
                 2.532579                 0.406324
                 2.542589                 0.422479
                 2.552599                 0.439194
                 2.562610                 0.456481
                 2.572620                 0.474351
                 2.582630                 0.492815
                 2.592640                 0.511884
                 2.602650                 0.531569
                 2.612661                 0.551878
                 2.622671                 0.572821
                 2.632681                 0.594406
                 2.642691                 0.616640
                 2.652701                 0.639529
                 2.662712                 0.663079
                 2.672722                 0.687294
                 2.682732                 0.712178
                 2.692742                 0.737733
                 2.702752                 0.763960
                 2.712763                 0.790858
                 2.722773                 0.818425
                 2.732783                 0.846659
                 2.742793                 0.875556
                 2.752803                 0.905108
                 2.762813                 0.935310
                 2.772824                 0.966151
                 2.782834                 0.997621
                 2.792844                 1.029708
                 2.802854                 1.062398
                 2.812864                 1.095677
                 2.822875                 1.129527
                 2.832885                 1.163931
                 2.842895                 1.198868
                 2.852905                 1.234319
                 2.862915                 1.270259
                 2.872926                 1.306667
                 2.882936                 1.343517
                 2.892946                 1.380785
                 2.902956                 1.418442
                 2.912966                 1.456463
                 2.922977                 1.494819
                 2.932987                 1.533482
                 2.942997                 1.572423
                 2.953007                 1.611613
                 2.963017                 1.651023
                 2.973028                 1.690624
                 2.983038                 1.730387
                 2.993048                 1.770284
                 3.003058                 1.810287
                 3.013068                 1.850369
                 3.023079                 1.890503
                 3.033089                 1.930663
                 3.043099                 1.970825
                 3.053109                 2.010964
                 3.063119                 2.051059
                 3.073129                 2.091088
                 3.083140                 2.131030
                 3.093150                 2.170866
                 3.103160                 2.210579
                 3.113170                 2.250151
                 3.123180                 2.289567
                 3.133191                 2.328813
                 3.143201                 2.367876
                 3.153211                 2.406742
                 3.163221                 2.445401
                 3.173231                 2.483843
                 3.183242                 2.522056
                 3.193252                 2.560033
                 3.203262                 2.597765
                 3.213272                 2.635244
                 3.223282                 2.672462
                 3.233293                 2.709412
                 3.243303                 2.746087
                 3.253313                 2.782480
                 3.263323                 2.818584
                 3.273333                 2.854392
                 3.283344                 2.889897
                 3.293354                 2.925091
                 3.303364                 2.959968
                 3.313374                 2.994518
                 3.323384                 3.028735
                 3.333395                 3.062609
                 3.343405                 3.096131
                 3.353415                 3.129293
                 3.363425                 3.162083
                 3.373435                 3.194494
                 3.383445                 3.226513
                 3.393456                 3.258130
                 3.403466                 3.289335
                 3.413476                 3.320116
                 3.423486                 3.350462
                 3.433496                 3.380362
                 3.443507                 3.409804
                 3.453517                 3.438778
                 3.463527                 3.467272
                 3.473537                 3.495276
                 3.483547                 3.522780
                 3.493558                 3.549774
                 3.503568                 3.576249
                 3.513578                 3.602198
                 3.523588                 3.627614
                 3.533598                 3.652489
                 3.543609                 3.676818
                 3.553619                 3.700599
                 3.563629                 3.723828
                 3.573639                 3.746503
                 3.583649                 3.768626
                 3.593660                 3.790196
                 3.603670                 3.811218
                 3.613680                 3.831695
                 3.623690                 3.851635
                 3.633700                 3.871044
                 3.643711                 3.889931
                 3.653721                 3.908307
                 3.663731                 3.926185
                 3.673741                 3.943577
                 3.683751                 3.960500
                 3.693761                 3.976968
                 3.703772                 3.993000
                 3.713782                 4.008613
                 3.723792                 4.023829
                 3.733802                 4.038667
                 3.743812                 4.053149
                 3.753823                 4.067298
                 3.763833                 4.081135
                 3.773843                 4.094685
                 3.783853                 4.107970
                 3.793863                 4.121015
                 3.803874                 4.133844
                 3.813884                 4.146481
                 3.823894                 4.158948
                 3.833904                 4.171270
                 3.843914                 4.183468
                 3.853925                 4.195565
                 3.863935                 4.207582
                 3.873945                 4.219539
                 3.883955                 4.231455
                 3.893965                 4.243348
                 3.903976                 4.255235
                 3.913986                 4.267129
                 3.923996                 4.279045
                 3.934006                 4.290994
                 3.944016                 4.302986
                 3.954027                 4.315029
                 3.964037                 4.327130
                 3.974047                 4.339292
                 3.984057                 4.351517
                 3.994067                 4.363807
                 4.004078                 4.376159
                 4.014088                 4.388570
                 4.024098                 4.401035
                 4.034108                 4.413546
                 4.044118                 4.426095
                 4.054128                 4.438670
                 4.064139                 4.451260
                 4.074149                 4.463852
                 4.084159                 4.476430
                 4.094169                 4.488979
                 4.104179                 4.501482
                 4.114190                 4.513922
                 4.124200                 4.526281
                 4.134210                 4.538540
                 4.144220                 4.550680
                 4.154230                 4.562682
                 4.164241                 4.574529
                 4.174251                 4.586201
                 4.184261                 4.597681
                 4.194271                 4.608951
                 4.204281                 4.619995
                 4.214292                 4.630798
                 4.224302                 4.641345
                 4.234312                 4.651622
                 4.244322                 4.661619
                 4.254332                 4.671324
                 4.264343                 4.680727
                 4.274353                 4.689822
                 4.284363                 4.698602
                 4.294373                 4.707061
                 4.304383                 4.715197
                 4.314394                 4.723007
                 4.324404                 4.730491
                 4.334414                 4.737650
                 4.344424                 4.744484
                 4.354434                 4.750998
                 4.364444                 4.757194
                 4.374455                 4.763079
                 4.384465                 4.768657
                 4.394475                 4.773934
                 4.404485                 4.778917
                 4.414495                 4.783614
                 4.424506                 4.788031
                 4.434516                 4.792176
                 4.444526                 4.796055
                 4.454536                 4.799676
                 4.464546                 4.803045
                 4.474557                 4.806168
                 4.484567                 4.809051
                 4.494577                 4.811698
                 4.504587                 4.814113
                 4.514597                 4.816299
                 4.524608                 4.818259
                 4.534618                 4.819992
                 4.544628                 4.821498
                 4.554638                 4.822776
                 4.564648                 4.823824
                 4.574659                 4.824636
                 4.584669                 4.825208
                 4.594679                 4.825533
                 4.604689                 4.825603
                 4.614699                 4.825410
                 4.624710                 4.824943
                 4.634720                 4.824191
                 4.644730                 4.823142
                 4.654740                 4.821784
                 4.664750                 4.820104
                 4.674760                 4.818088
                 4.684771                 4.815722
                 4.694781                 4.812993
                 4.704791                 4.809888
                 4.714801                 4.806395
                 4.724811                 4.802501
                 4.734822                 4.798197
                 4.744832                 4.793473
                 4.754842                 4.788323
                 4.764852                 4.782741
                 4.774862                 4.776725
                 4.784873                 4.770276
                 4.794883                 4.763395
                 4.804893                 4.756090
                 4.814903                 4.748370
                 4.824913                 4.740247
                 4.834924                 4.731738
                 4.844934                 4.722863
                 4.854944                 4.713645
                 4.864954                 4.704112
                 4.874964                 4.694295
                 4.884975                 4.684227
                 4.894985                 4.673946
                 4.904995                 4.663493
                 4.915005                 4.652908
                 4.925015                 4.642239
                 4.935026                 4.631532
                 4.945036                 4.620835
                 4.955046                 4.610198
                 4.965056                 4.599671
                 4.975066                 4.589305
                 4.985076                 4.579151
                 4.995087                 4.569256
                 5.005097                 4.559671
                 5.015107                 4.550439
                 5.025117                 4.541607
                 5.035127                 4.533215
                 5.045138                 4.525302
                 5.055148                 4.517902
                 5.065158                 4.511047
                 5.075168                 4.504763
                 5.085178                 4.499074
                 5.095189                 4.493996
                 5.105199                 4.489545
                 5.115209                 4.485727
                 5.125219                 4.482546
                 5.135229                 4.480001
                 5.145240                 4.478086
                 5.155250                 4.476788
                 5.165260                 4.476092
                 5.175270                 4.475976
                 5.185280                 4.476416
                 5.195291                 4.477383
                 5.205301                 4.478842
                 5.215311                 4.480759
                 5.225321                 4.483092
                 5.235331                 4.485799
                 5.245342                 4.488835
                 5.255352                 4.492152
                 5.265362                 4.495703
                 5.275372                 4.499437
                 5.285382                 4.503303
                 5.295393                 4.507251
                 5.305403                 4.511229
                 5.315413                 4.515188
                 5.325423                 4.519077
                 5.335433                 4.522848
                 5.345443                 4.526455
                 5.355454                 4.529853
                 5.365464                 4.532999
                 5.375474                 4.535852
                 5.385484                 4.538377
                 5.395494                 4.540537
                 5.405505                 4.542302
                 5.415515                 4.543643
                 5.425525                 4.544535
                 5.435535                 4.544956
                 5.445545                 4.544889
                 5.455556                 4.544317
                 5.465566                 4.543229
                 5.475576                 4.541617
                 5.485586                 4.539475
                 5.495596                 4.536800
                 5.505607                 4.533593
                 5.515617                 4.529856
                 5.525627                 4.525596
                 5.535637                 4.520819
                 5.545647                 4.515537
                 5.555658                 4.509759
                 5.565668                 4.503501
                 5.575678                 4.496775
                 5.585688                 4.489600
                 5.595698                 4.481990
                 5.605709                 4.473965
                 5.615719                 4.465542
                 5.625729                 4.456741
                 5.635739                 4.447580
                 5.645749                 4.438078
                 5.655759                 4.428255
                 5.665770                 4.418129
                 5.675780                 4.407720
                 5.685790                 4.397046
                 5.695800                 4.386125
                 5.705810                 4.374975
                 5.715821                 4.363614
                 5.725831                 4.352058
                 5.735841                 4.340325
                 5.745851                 4.328431
                 5.755861                 4.316393
                 5.765872                 4.304226
                 5.775882                 4.291946
                 5.785892                 4.279571
                 5.795902                 4.267114
                 5.805912                 4.254594
                 5.815923                 4.242024
                 5.825933                 4.229423
                 5.835943                 4.216807
                 5.845953                 4.204191
                 5.855963                 4.191593
                 5.865974                 4.179031
                 5.875984                 4.166520
                 5.885994                 4.154079
                 5.896004                 4.141725
                 5.906014                 4.129476
                 5.916025                 4.117348
                 5.926035                 4.105359
                 5.936045                 4.093525
                 5.946055                 4.081863
                 5.956065                 4.070388
                 5.966075                 4.059116
                 5.976086                 4.048061
                 5.986096                 4.037235
                 5.996106                 4.026652
                 6.006116                 4.016322
                 6.016126                 4.006255
                 6.026137                 3.996460
                 6.036147                 3.986945
                 6.046157                 3.977714
                 6.056167                 3.968773
                 6.066177                 3.960124
                 6.076188                 3.951769
                 6.086198                 3.943707
                 6.096208                 3.935936
                 6.106218                 3.928455
                 6.116228                 3.921258
                 6.126239                 3.914339
                 6.136249                 3.907691
                 6.146259                 3.901307
                 6.156269                 3.895176
                 6.166279                 3.889289
                 6.176290                 3.883633
                 6.186300                 3.878196
                 6.196310                 3.872967
                 6.206320                 3.867930
                 6.216330                 3.863072
                 6.226341                 3.858378
                 6.236351                 3.853833
                 6.246361                 3.849423
                 6.256371                 3.845131
                 6.266381                 3.840944
                 6.276391                 3.836845
                 6.286402                 3.832820
                 6.296412                 3.828854
                 6.306422                 3.824934
                 6.316432                 3.821045
                 6.326442                 3.817174
                 6.336453                 3.813310
                 6.346463                 3.809440
                 6.356473                 3.805553
                 6.366483                 3.801640
                 6.376493                 3.797691
                 6.386504                 3.793697
                 6.396514                 3.789652
                 6.406524                 3.785549
                 6.416534                 3.781383
                 6.426544                 3.777149
                 6.436555                 3.772843
                 6.446565                 3.768462
                 6.456575                 3.764006
                 6.466585                 3.759471
                 6.476595                 3.754859
                 6.486606                 3.750169
                 6.496616                 3.745401
                 6.506626                 3.740556
                 6.516636                 3.735636
                 6.526646                 3.730642
                 6.536657                 3.725575
                 6.546667                 3.720436
                 6.556677                 3.715227
                 6.566687                 3.709947
                 6.576697                 3.704598
                 6.586707                 3.699178
                 6.596718                 3.693686
                 6.606728                 3.688121
                 6.616738                 3.682480
                 6.626748                 3.676758
                 6.636758                 3.670953
                 6.646769                 3.665057
                 6.656779                 3.659066
                 6.666789                 3.652972
                 6.676799                 3.646766
                 6.686809                 3.640441
                 6.696820                 3.633987
                 6.706830                 3.627394
                 6.716840                 3.620652
                 6.726850                 3.613752
                 6.736860                 3.606682
                 6.746871                 3.599432
                 6.756881                 3.591994
                 6.766891                 3.584356
                 6.776901                 3.576512
                 6.786911                 3.568451
                 6.796922                 3.560168
                 6.806932                 3.551657
                 6.816942                 3.542913
                 6.826952                 3.533933
                 6.836962                 3.524716
                 6.846973                 3.515260
                 6.856983                 3.505567
                 6.866993                 3.495641
                 6.877003                 3.485486
                 6.887013                 3.475109
                 6.897024                 3.464517
                 6.907034                 3.453719
                 6.917044                 3.442727
                 6.927054                 3.431552
                 6.937064                 3.420208
                 6.947074                 3.408710
                 6.957085                 3.397072
                 6.967095                 3.385311
                 6.977105                 3.373443
                 6.987115                 3.361485
                 6.997125                 3.349454
                 7.007136                 3.337367
                 7.017146                 3.325242
                 7.027156                 3.313094
                 7.037166                 3.300939
                 7.047176                 3.288794
                 7.057187                 3.276673
                 7.067197                 3.264588
                 7.077207                 3.252553
                 7.087217                 3.240579
                 7.097227                 3.228677
                 7.107238                 3.216855
                 7.117248                 3.205120
                 7.127258                 3.193481
                 7.137268                 3.181942
                 7.147278                 3.170507
                 7.157289                 3.159180
                 7.167299                 3.147962
                 7.177309                 3.136855
                 7.187319                 3.125860
                 7.197329                 3.114976
                 7.207340                 3.104203
                 7.217350                 3.093540
                 7.227360                 3.082985
                 7.237370                 3.072539
                 7.247380                 3.062200
                 7.257390                 3.051966
                 7.267401                 3.041838
                 7.277411                 3.031817
                 7.287421                 3.021902
                 7.297431                 3.012096
                 7.307441                 3.002400
                 7.317452                 2.992819
                 7.327462                 2.983357
                 7.337472                 2.974018
                 7.347482                 2.964810
                 7.357492                 2.955740
                 7.367503                 2.946816
                 7.377513                 2.938048
                 7.387523                 2.929445
                 7.397533                 2.921020
                 7.407543                 2.912783
                 7.417554                 2.904747
                 7.427564                 2.896925
                 7.437574                 2.889332
                 7.447584                 2.881979
                 7.457594                 2.874883
                 7.467605                 2.868056
                 7.477615                 2.861513
                 7.487625                 2.855267
                 7.497635                 2.849333
                 7.507645                 2.843723
                 7.517656                 2.838451
                 7.527666                 2.833527
                 7.537676                 2.828965
                 7.547686                 2.824773
                 7.557696                 2.820963
                 7.567706                 2.817542
                 7.577717                 2.814518
                 7.587727                 2.811898
                 7.597737                 2.809687
                 7.607747                 2.807888
                 7.617757                 2.806504
                 7.627768                 2.805537
                 7.637778                 2.804986
                 7.647788                 2.804849
                 7.657798                 2.805122
                 7.667808                 2.805800
                 7.677819                 2.806877
                 7.687829                 2.808343
                 7.697839                 2.810188
                 7.707849                 2.812401
                 7.717859                 2.814966
                 7.727870                 2.817868
                 7.737880                 2.821090
                 7.747890                 2.824611
                 7.757900                 2.828410
                 7.767910                 2.832465
                 7.777921                 2.836750
                 7.787931                 2.841240
                 7.797941                 2.845906
                 7.807951                 2.850720
                 7.817961                 2.855652
                 7.827972                 2.860669
                 7.837982                 2.865740
                 7.847992                 2.870832
                 7.858002                 2.875911
                 7.868012                 2.880944
                 7.878022                 2.885897
                 7.888033                 2.890735
                 7.898043                 2.895426
                 7.908053                 2.899937
                 7.918063                 2.904235
                 7.928073                 2.908289
                 7.938084                 2.912069
                 7.948094                 2.915547
                 7.958104                 2.918695
                 7.968114                 2.921488
                 7.978124                 2.923902
                 7.988135                 2.925915
                 7.998145                 2.927509
                 8.008155                 2.928666
                 8.018165                 2.929370
                 8.028175                 2.929609
                 8.038186                 2.929373
                 8.048196                 2.928653
                 8.058206                 2.927443
                 8.068216                 2.925741
                 8.078226                 2.923544
                 8.088237                 2.920854
                 8.098247                 2.917674
                 8.108257                 2.914010
                 8.118267                 2.909868
                 8.128277                 2.905257
                 8.138288                 2.900189
                 8.148298                 2.894676
                 8.158308                 2.888731
                 8.168318                 2.882371
                 8.178328                 2.875611
                 8.188338                 2.868471
                 8.198349                 2.860968
                 8.208359                 2.853123
                 8.218369                 2.844956
                 8.228379                 2.836489
                 8.238389                 2.827743
                 8.248400                 2.818741
                 8.258410                 2.809506
                 8.268420                 2.800060
                 8.278430                 2.790426
                 8.288440                 2.780628
                 8.298451                 2.770688
                 8.308461                 2.760629
                 8.318471                 2.750474
                 8.328481                 2.740245
                 8.338491                 2.729964
                 8.348502                 2.719651
                 8.358512                 2.709327
                 8.368522                 2.699013
                 8.378532                 2.688727
                 8.388542                 2.678488
                 8.398553                 2.668314
                 8.408563                 2.658220
                 8.418573                 2.648222
                 8.428583                 2.638336
                 8.438593                 2.628575
                 8.448604                 2.618952
                 8.458614                 2.609479
                 8.468624                 2.600166
                 8.478634                 2.591024
                 8.488644                 2.582061
                 8.498655                 2.573286
                 8.508665                 2.564706
                 8.518675                 2.556327
                 8.528685                 2.548156
                 8.538695                 2.540197
                 8.548705                 2.532455
                 8.558716                 2.524934
                 8.568726                 2.517638
                 8.578736                 2.510569
                 8.588746                 2.503732
                 8.598756                 2.497127
                 8.608767                 2.490757
                 8.618777                 2.484625
                 8.628787                 2.478732
                 8.638797                 2.473080
                 8.648807                 2.467670
                 8.658818                 2.462504
                 8.668828                 2.457584
                 8.678838                 2.452909
                 8.688848                 2.448482
                 8.698858                 2.444304
                 8.708869                 2.440374
                 8.718879                 2.436694
                 8.728889                 2.433263
                 8.738899                 2.430082
                 8.748909                 2.427150
                 8.758920                 2.424467
                 8.768930                 2.422031
                 8.778940                 2.419841
                 8.788950                 2.417894
                 8.798960                 2.416189
                 8.808971                 2.414722
                 8.818981                 2.413490
                 8.828991                 2.412488
                 8.839001                 2.411714
                 8.849011                 2.411160
                 8.859021                 2.410823
                 8.869032                 2.410695
                 8.879042                 2.410771
                 8.889052                 2.411044
                 8.899062                 2.411507
                 8.909072                 2.412152
                 8.919083                 2.412971
                 8.929093                 2.413957
                 8.939103                 2.415101
                 8.949113                 2.416396
                 8.959123                 2.417831
                 8.969134                 2.419400
                 8.979144                 2.421094
                 8.989154                 2.422904
                 8.999164                 2.424822
                 9.009174                 2.426839
                 9.019185                 2.428948
                 9.029195                 2.431141
                 9.039205                 2.433409
                 9.049215                 2.435746
                 9.059225                 2.438145
                 9.069236                 2.440597
                 9.079246                 2.443097
                 9.089256                 2.445637
                 9.099266                 2.448212
                 9.109276                 2.450815
                 9.119287                 2.453440
                 9.129297                 2.456081
                 9.139307                 2.458732
                 9.149317                 2.461389
                 9.159327                 2.464044
                 9.169337                 2.466694
                 9.179348                 2.469332
                 9.189358                 2.471953
                 9.199368                 2.474552
                 9.209378                 2.477124
                 9.219388                 2.479663
                 9.229399                 2.482164
                 9.239409                 2.484622
                 9.249419                 2.487031
                 9.259429                 2.489387
                 9.269439                 2.491684
                 9.279450                 2.493917
                 9.289460                 2.496080
                 9.299470                 2.498170
                 9.309480                 2.500180
                 9.319490                 2.502105
                 9.329501                 2.503942
                 9.339511                 2.505685
                 9.349521                 2.507331
                 9.359531                 2.508873
                 9.369541                 2.510310
                 9.379552                 2.511635
                 9.389562                 2.512847
                 9.399572                 2.513940
                 9.409582                 2.514912
                 9.419592                 2.515758
                 9.429603                 2.516477
                 9.439613                 2.517063
                 9.449623                 2.517515
                 9.459633                 2.517829
                 9.469643                 2.518001
                 9.479653                 2.518030
                 9.489664                 2.517910
                 9.499674                 2.517640
                 9.509684                 2.517215
                 9.519694                 2.516631
                 9.529704                 2.515886
                 9.539715                 2.514975
                 9.549725                 2.513893
                 9.559735                 2.512638
                 9.569745                 2.511203
                 9.579755                 2.509586
                 9.589766                 2.507782
                 9.599776                 2.505786
                 9.609786                 2.503594
                 9.619796                 2.501203
                 9.629806                 2.498607
                 9.639817                 2.495805
                 9.649827                 2.492792
                 9.659837                 2.489566
                 9.669847                 2.486125
                 9.679857                 2.482468
                 9.689868                 2.478594
                 9.699878                 2.474503
                 9.709888                 2.470196
                 9.719898                 2.465675
                 9.729908                 2.460942
                 9.739919                 2.456002
                 9.749929                 2.450858
                 9.759939                 2.445515
                 9.769949                 2.439981
                 9.779959                 2.434262
                 9.789969                 2.428366
                 9.799980                 2.422300
                 9.809990                 2.416075
                 9.820000                 2.409699
                 9.830010                 2.403182
                 9.840020                 2.396534
                 9.850031                 2.389766
                 9.860041                 2.382888
                 9.870051                 2.375910
                 9.880061                 2.368843
                 9.890071                 2.361696
                 9.900082                 2.354479
                 9.910092                 2.347202
                 9.920102                 2.339873
                 9.930112                 2.332502
                 9.940122                 2.325097
                 9.950133                 2.317666
                 9.960143                 2.310216
                 9.970153                 2.302754
                 9.980163                 2.295288
                 9.990173                 2.287823
                10.000184                 2.280366
