#        Energy grid [eV]               Re(eps)                  Im(eps)               refractive_index          extinct_coeff             reflectivity
#
                 0.000000             -2378.078296                 Infinity                 Infinity                 Infinity                      NaN
                 0.010010             -2371.697128             45877.374315               147.592243               155.419327                 0.987231
                 0.020020             -2352.757004             22755.912524               101.302663               112.316457                 0.982444
                 0.030031             -2321.852072             14971.784000                80.090264                93.468190                 0.979078
                 0.040041             -2279.921574             11026.520730                67.006861                82.279043                 0.976478
                 0.050051             -2228.180884              8621.495008                57.777986                74.608823                 0.974382
                 0.060061             -2168.038349              6991.118336                50.752010                68.875285                 0.972648
                 0.070071             -2101.007859              5807.572367                45.138253                64.330939                 0.971191
                 0.080082             -2028.626189              4907.003134                40.504175                60.574041                 0.969951
                 0.090092             -1952.381943              4198.277352                36.590055                57.369104                 0.968888
                 0.100102             -1873.660189              3626.515228                33.228583                54.569212                 0.967968
                 0.110112             -1793.704166              3156.544400                30.305782                52.078254                 0.967168
                 0.120122             -1713.593224              2764.653036                27.740342                49.830912                 0.966468
                 0.130133             -1634.234742              2434.169936                25.471974                47.781337                 0.965853
                 0.140143             -1556.366990              2152.953966                23.454493                45.896408                 0.965310
                 0.150153             -1480.569800              1911.897766                21.651539                44.151545                 0.964829
                 0.160163             -1407.280141              1703.998485                20.033823                42.528040                 0.964401
                 0.170173             -1336.810228              1523.759366                18.577311                41.011300                 0.964018
                 0.180183             -1269.366317              1366.791537                17.261972                39.589670                 0.963675
                 0.190194             -1205.066915              1229.540967                16.070902                38.253638                 0.963366
                 0.200204             -1143.959593              1109.095974                14.989696                36.995278                 0.963087
                 0.210214             -1086.035946              1003.048036                14.005974                35.807866                 0.962834
                 0.220224             -1031.244536               909.388792                13.109024                34.685603                 0.962603
                 0.230234              -979.501813               826.432217                12.289532                33.623421                 0.962393
                 0.240245              -930.701163               752.754738                11.539359                32.616836                 0.962200
                 0.250255              -884.720244               687.148414                10.851364                31.661844                 0.962023
                 0.260265              -841.426842               628.583813                10.219266                30.754841                 0.961859
                 0.270275              -800.683474               576.180246                 9.637519                29.892562                 0.961707
                 0.280285              -762.350922               529.181637                 9.101215                29.072032                 0.961567
                 0.290296              -726.290910               486.936827                 8.606003                28.290532                 0.961435
                 0.300306              -692.368068               448.883347                 8.148015                27.545566                 0.961313
                 0.310316              -660.451350               414.533994                 7.723803                26.834837                 0.961197
                 0.320326              -630.414989               383.465654                 7.330294                26.156227                 0.961089
                 0.330336              -602.139121               355.309948                 6.964738                25.507777                 0.960986
                 0.340347              -575.510136               329.745389                 6.624672                24.887676                 0.960889
                 0.350357              -550.420827               306.490758                 6.307888                24.294244                 0.960797
                 0.360367              -526.770390               285.299521                 6.012401                23.725922                 0.960709
                 0.370377              -504.464316               265.955075                 5.736424                23.181261                 0.960625
                 0.380387              -483.414194               248.266718                 5.478345                22.658916                 0.960545
                 0.390398              -463.537479               232.066207                 5.236711                22.157631                 0.960467
                 0.400408              -444.757205               217.204818                 5.010205                21.676240                 0.960392
                 0.410418              -427.001696               203.550825                 4.797638                21.213652                 0.960320
                 0.420428              -410.204251               190.987336                 4.597927                20.768851                 0.960250
                 0.430438              -394.302846               179.410429                 4.410093                20.340889                 0.960182
                 0.440449              -379.239825               168.727547                 4.233243                19.928878                 0.960115
                 0.450459              -364.961608               158.856108                 4.066563                19.531988                 0.960050
                 0.460469              -351.418408               149.722303                 3.909312                19.149442                 0.959987
                 0.470479              -338.563967               141.260054                 3.760814                18.780514                 0.959925
                 0.480489              -326.355296               133.410103                 3.620450                18.424520                 0.959863
                 0.490499              -314.752443               126.119226                 3.487652                18.080823                 0.959803
                 0.500510              -303.718262               119.339540                 3.361901                17.748821                 0.959743
                 0.510520              -293.218211               113.027904                 3.242719                17.427950                 0.959684
                 0.520530              -283.220156               107.145388                 3.129670                17.117681                 0.959626
                 0.530540              -273.694190               101.656811                 3.022349                16.817514                 0.959568
                 0.540550              -264.612466                96.530335                 2.920386                16.526982                 0.959511
                 0.550561              -255.949042                91.737107                 2.823438                16.245641                 0.959454
                 0.560571              -247.679741                87.250941                 2.731188                15.973075                 0.959397
                 0.570581              -239.782018                83.048042                 2.643345                15.708892                 0.959340
                 0.580591              -232.234834                79.106758                 2.559638                15.452721                 0.959283
                 0.590601              -225.018553                75.407364                 2.479818                15.204212                 0.959226
                 0.600612              -218.114828                71.931864                 2.403652                14.963034                 0.959170
                 0.610622              -211.506515                68.663821                 2.330926                14.728874                 0.959113
                 0.620632              -205.177578                65.588207                 2.261438                14.501437                 0.959056
                 0.630642              -199.113012                62.691261                 2.195004                14.280443                 0.958999
                 0.640652              -193.298769                59.960372                 2.131450                14.065627                 0.958941
                 0.650663              -187.721684                57.383968                 2.070616                13.856736                 0.958883
                 0.660673              -182.369420                54.951419                 2.012352                13.653534                 0.958825
                 0.670683              -177.230401                52.652949                 1.956516                13.455793                 0.958767
                 0.680693              -172.293764                50.479559                 1.902979                13.263299                 0.958708
                 0.690703              -167.549306                48.422959                 1.851618                13.075848                 0.958648
                 0.700714              -162.987439                46.475499                 1.802320                12.893246                 0.958588
                 0.710724              -158.599149                44.630118                 1.754976                12.715309                 0.958528
                 0.720734              -154.375955                42.880290                 1.709487                12.541862                 0.958467
                 0.730744              -150.309872                41.219976                 1.665758                12.372737                 0.958406
                 0.740754              -146.393381                39.643588                 1.623702                12.207776                 0.958344
                 0.750765              -142.619395                38.145944                 1.583236                12.046827                 0.958281
                 0.760775              -138.981230                36.722239                 1.544282                11.889745                 0.958217
                 0.770785              -135.472581                35.368013                 1.506767                11.736393                 0.958153
                 0.780795              -132.087496                34.079121                 1.470621                11.586640                 0.958088
                 0.790805              -128.820353                32.851708                 1.435781                11.440359                 0.958023
                 0.800816              -125.665837                31.682187                 1.402185                11.297432                 0.957956
                 0.810826              -122.618925                30.567217                 1.369776                11.157742                 0.957889
                 0.820836              -119.674864                29.503685                 1.338499                11.021182                 0.957821
                 0.830846              -116.829154                28.488685                 1.308303                10.887645                 0.957752
                 0.840856              -114.077536                27.519505                 1.279140                10.757032                 0.957682
                 0.850866              -111.415972                26.593612                 1.250964                10.629247                 0.957612
                 0.860877              -108.840635                25.708637                 1.223732                10.504197                 0.957540
                 0.870887              -106.347896                24.862364                 1.197402                10.381795                 0.957467
                 0.880897              -103.934310                24.052720                 1.171936                10.261956                 0.957394
                 0.890907              -101.596607                23.277760                 1.147298                10.144600                 0.957319
                 0.900917               -99.331682                22.535663                 1.123452                10.029647                 0.957244
                 0.910928               -97.136584                21.824720                 1.100366                 9.917025                 0.957167
                 0.920938               -95.008508                21.143326                 1.078008                 9.806661                 0.957089
                 0.930948               -92.944783                20.489976                 1.056349                 9.698487                 0.957011
                 0.940958               -90.942873                19.863253                 1.035360                 9.592437                 0.956931
                 0.950968               -89.000359                19.261825                 1.015015                 9.488446                 0.956850
                 0.960979               -87.114939                18.684440                 0.995287                 9.386455                 0.956767
                 0.970989               -85.284421                18.129919                 0.976154                 9.286404                 0.956684
                 0.980999               -83.506714                17.597149                 0.957591                 9.188237                 0.956599
                 0.991009               -81.779824                17.085084                 0.939577                 9.091899                 0.956513
                 1.001019               -80.101850                16.592736                 0.922091                 8.997339                 0.956426
                 1.011030               -78.470976                16.119172                 0.905113                 8.904505                 0.956338
                 1.021040               -76.885471                15.663513                 0.888624                 8.813349                 0.956248
                 1.031050               -75.343680                15.224928                 0.872606                 8.723825                 0.956157
                 1.041060               -73.844021                14.802631                 0.857042                 8.635887                 0.956064
                 1.051070               -72.384983                14.395879                 0.841914                 8.549491                 0.955971
                 1.061081               -70.965121                14.003971                 0.827208                 8.464597                 0.955875
                 1.071091               -69.583053                13.626240                 0.812909                 8.381162                 0.955778
                 1.081101               -68.237457                13.262057                 0.799001                 8.299148                 0.955680
                 1.091111               -66.927067                12.910825                 0.785472                 8.218518                 0.955580
                 1.101121               -65.650669                12.571980                 0.772307                 8.139234                 0.955479
                 1.111132               -64.407105                12.244984                 0.759496                 8.061262                 0.955376
                 1.121142               -63.195259                11.929329                 0.747024                 7.984567                 0.955272
                 1.131152               -62.014067                11.624533                 0.734882                 7.909116                 0.955165
                 1.141162               -60.862505                11.330136                 0.723058                 7.834878                 0.955058
                 1.151172               -59.739593                11.045704                 0.711541                 7.761822                 0.954948
                 1.161182               -58.644389                10.770823                 0.700321                 7.689918                 0.954837
                 1.171193               -57.575990                10.505099                 0.689389                 7.619137                 0.954724
                 1.181203               -56.533530                10.248158                 0.678735                 7.549451                 0.954609
                 1.191213               -55.516174                 9.999644                 0.668351                 7.480833                 0.954492
                 1.201223               -54.523124                 9.759219                 0.658227                 7.413258                 0.954374
                 1.211233               -53.553609                 9.526559                 0.648356                 7.346698                 0.954253
                 1.221244               -52.606891                 9.301357                 0.638730                 7.281131                 0.954131
                 1.231254               -51.682260                 9.083321                 0.629341                 7.216532                 0.954007
                 1.241264               -50.779031                 8.872171                 0.620182                 7.152878                 0.953880
                 1.251274               -49.896547                 8.667641                 0.611246                 7.090146                 0.953752
                 1.261284               -49.034175                 8.469477                 0.602525                 7.028315                 0.953621
                 1.271295               -48.191306                 8.277436                 0.594015                 6.967364                 0.953488
                 1.281305               -47.367353                 8.091287                 0.585708                 6.907272                 0.953353
                 1.291315               -46.561751                 7.910810                 0.577598                 6.848020                 0.953216
                 1.301325               -45.773956                 7.735792                 0.569681                 6.789587                 0.953076
                 1.311335               -45.003443                 7.566033                 0.561949                 6.731956                 0.952935
                 1.321346               -44.249706                 7.401339                 0.554398                 6.675108                 0.952790
                 1.331356               -43.512257                 7.241526                 0.547024                 6.619025                 0.952644
                 1.341366               -42.790627                 7.086418                 0.539820                 6.563690                 0.952494
                 1.351376               -42.084362                 6.935846                 0.532782                 6.509087                 0.952343
                 1.361386               -41.393023                 6.789648                 0.525905                 6.455199                 0.952188
                 1.371397               -40.716189                 6.647670                 0.519186                 6.402011                 0.952031
                 1.381407               -40.053451                 6.509764                 0.512620                 6.349506                 0.951871
                 1.391417               -39.404417                 6.375787                 0.506202                 6.297671                 0.951709
                 1.401427               -38.768704                 6.245604                 0.499929                 6.246490                 0.951544
                 1.411437               -38.145946                 6.119085                 0.493797                 6.195949                 0.951375
                 1.421448               -37.535788                 5.996104                 0.487803                 6.146034                 0.951204
                 1.431458               -36.937886                 5.876543                 0.481942                 6.096733                 0.951030
                 1.441468               -36.351909                 5.760284                 0.476212                 6.048032                 0.950853
                 1.451478               -35.777535                 5.647220                 0.470608                 5.999917                 0.950672
                 1.461488               -35.214455                 5.537243                 0.465129                 5.952378                 0.950488
                 1.471498               -34.662367                 5.430252                 0.459770                 5.905401                 0.950301
                 1.481509               -34.120982                 5.326149                 0.454529                 5.858974                 0.950111
                 1.491519               -33.590018                 5.224841                 0.449403                 5.813087                 0.949917
                 1.501529               -33.069204                 5.126238                 0.444390                 5.767728                 0.949720
                 1.511539               -32.558275                 5.030252                 0.439486                 5.722886                 0.949519
                 1.521549               -32.056976                 4.936802                 0.434689                 5.678550                 0.949314
                 1.531560               -31.565061                 4.845806                 0.429996                 5.634710                 0.949105
                 1.541570               -31.082289                 4.757188                 0.425406                 5.591356                 0.948893
                 1.551580               -30.608428                 4.670874                 0.420915                 5.548477                 0.948676
                 1.561590               -30.143254                 4.586792                 0.416522                 5.506064                 0.948455
                 1.571600               -29.686549                 4.504875                 0.412224                 5.464108                 0.948231
                 1.581611               -29.238100                 4.425056                 0.408020                 5.422599                 0.948002
                 1.591621               -28.797703                 4.347272                 0.403907                 5.381528                 0.947768
                 1.601631               -28.365160                 4.271461                 0.399883                 5.340886                 0.947530
                 1.611641               -27.940276                 4.197565                 0.395947                 5.300665                 0.947287
                 1.621651               -27.522864                 4.125527                 0.392097                 5.260856                 0.947040
                 1.631662               -27.112743                 4.055292                 0.388330                 5.221450                 0.946788
                 1.641672               -26.709737                 3.986808                 0.384646                 5.182440                 0.946530
                 1.651682               -26.313674                 3.920024                 0.381042                 5.143818                 0.946268
                 1.661692               -25.924387                 3.854892                 0.377518                 5.105576                 0.946000
                 1.671702               -25.541715                 3.791363                 0.374071                 5.067706                 0.945727
                 1.681713               -25.165501                 3.729393                 0.370700                 5.030201                 0.945449
                 1.691723               -24.795592                 3.668937                 0.367404                 4.993053                 0.945164
                 1.701733               -24.431841                 3.609954                 0.364182                 4.956256                 0.944874
                 1.711743               -24.074102                 3.552402                 0.361031                 4.919801                 0.944578
                 1.721753               -23.722236                 3.496242                 0.357951                 4.883684                 0.944276
                 1.731764               -23.376106                 3.441437                 0.354941                 4.847895                 0.943967
                 1.741774               -23.035581                 3.387949                 0.352000                 4.812430                 0.943652
                 1.751784               -22.700531                 3.335744                 0.349126                 4.777282                 0.943330
                 1.761794               -22.370830                 3.284786                 0.346318                 4.742443                 0.943001
                 1.771804               -22.046357                 3.235044                 0.343576                 4.707908                 0.942665
                 1.781814               -21.726993                 3.186485                 0.340897                 4.673671                 0.942321
                 1.791825               -21.412621                 3.139078                 0.338283                 4.639726                 0.941971
                 1.801835               -21.103131                 3.092795                 0.335731                 4.606066                 0.941612
                 1.811845               -20.798411                 3.047606                 0.333240                 4.572686                 0.941246
                 1.821855               -20.498356                 3.003483                 0.330811                 4.539581                 0.940871
                 1.831865               -20.202861                 2.960400                 0.328441                 4.506743                 0.940488
                 1.841876               -19.911825                 2.918331                 0.326131                 4.474169                 0.940096
                 1.851886               -19.625148                 2.877252                 0.323880                 4.441852                 0.939695
                 1.861896               -19.342736                 2.837138                 0.321686                 4.409787                 0.939285
                 1.871906               -19.064493                 2.797965                 0.319551                 4.377968                 0.938865
                 1.881916               -18.790329                 2.759712                 0.317472                 4.346391                 0.938435
                 1.891927               -18.520154                 2.722358                 0.315449                 4.315051                 0.937995
                 1.901937               -18.253880                 2.685880                 0.313482                 4.283941                 0.937545
                 1.911947               -17.991424                 2.650259                 0.311571                 4.253058                 0.937084
                 1.921957               -17.732703                 2.615475                 0.309715                 4.222396                 0.936612
                 1.931967               -17.477634                 2.581510                 0.307913                 4.191950                 0.936128
                 1.941978               -17.226141                 2.548345                 0.306165                 4.161716                 0.935632
                 1.951988               -16.978144                 2.515963                 0.304472                 4.131688                 0.935124
                 1.961998               -16.733569                 2.484347                 0.302832                 4.101863                 0.934603
                 1.972008               -16.492343                 2.453481                 0.301245                 4.072234                 0.934069
                 1.982018               -16.254394                 2.423349                 0.299712                 4.042799                 0.933521
                 1.992029               -16.019651                 2.393937                 0.298232                 4.013551                 0.932959
                 2.002039               -15.788046                 2.365228                 0.296805                 3.984487                 0.932382
                 2.012049               -15.559511                 2.337211                 0.295430                 3.955602                 0.931791
                 2.022059               -15.333982                 2.309870                 0.294109                 3.926892                 0.931183
                 2.032069               -15.111393                 2.283193                 0.292841                 3.898352                 0.930559
                 2.042080               -14.891683                 2.257168                 0.291625                 3.869978                 0.929919
                 2.052090               -14.674790                 2.231782                 0.290463                 3.841765                 0.929261
                 2.062100               -14.460653                 2.207025                 0.289354                 3.813709                 0.928585
                 2.072110               -14.249215                 2.182885                 0.288299                 3.785807                 0.927890
                 2.082120               -14.040417                 2.159352                 0.287297                 3.758052                 0.927175
                 2.092130               -13.834202                 2.136415                 0.286349                 3.730442                 0.926440
                 2.102141               -13.630516                 2.114066                 0.285455                 3.702972                 0.925684
                 2.112151               -13.429305                 2.092294                 0.284616                 3.675638                 0.924906
                 2.122161               -13.230515                 2.071092                 0.283833                 3.648435                 0.924105
                 2.132171               -13.034095                 2.050450                 0.283105                 3.621359                 0.923281
                 2.142181               -12.839993                 2.030362                 0.282434                 3.594407                 0.922432
                 2.152192               -12.648159                 2.010819                 0.281819                 3.567574                 0.921557
                 2.162202               -12.458544                 1.991816                 0.281262                 3.540855                 0.920656
                 2.172212               -12.271101                 1.973344                 0.280763                 3.514247                 0.919726
                 2.182222               -12.085781                 1.955398                 0.280324                 3.487745                 0.918768
                 2.192232               -11.902538                 1.937973                 0.279945                 3.461345                 0.917779
                 2.202243               -11.721326                 1.921064                 0.279627                 3.435043                 0.916759
                 2.212253               -11.542102                 1.904664                 0.279372                 3.408834                 0.915706
                 2.222263               -11.364819                 1.888771                 0.279180                 3.382715                 0.914618
                 2.232273               -11.189436                 1.873379                 0.279052                 3.356681                 0.913494
                 2.242283               -11.015909                 1.858486                 0.278991                 3.330727                 0.912333
                 2.252294               -10.844197                 1.844089                 0.278997                 3.304850                 0.911132
                 2.262304               -10.674257                 1.830184                 0.279073                 3.279045                 0.909891
                 2.272314               -10.506051                 1.816771                 0.279219                 3.253308                 0.908606
                 2.282324               -10.339536                 1.803846                 0.279438                 3.227634                 0.907276
                 2.292334               -10.174674                 1.791410                 0.279731                 3.202019                 0.905899
                 2.302345               -10.011426                 1.779461                 0.280101                 3.176458                 0.904472
                 2.312355                -9.849754                 1.767999                 0.280550                 3.150946                 0.902993
                 2.322365                -9.689619                 1.757025                 0.281081                 3.125480                 0.901460
                 2.332375                -9.530985                 1.746539                 0.281695                 3.100054                 0.899869
                 2.342385                -9.373814                 1.736544                 0.282396                 3.074664                 0.898218
                 2.352396                -9.218070                 1.727041                 0.283186                 3.049306                 0.896504
                 2.362406                -9.063717                 1.718034                 0.284069                 3.023973                 0.894723
                 2.372416                -8.910720                 1.709525                 0.285048                 2.998662                 0.892873
                 2.382426                -8.759043                 1.701518                 0.286127                 2.973367                 0.890948
                 2.392436                -8.608652                 1.694019                 0.287309                 2.948084                 0.888945
                 2.402447                -8.459513                 1.687034                 0.288598                 2.922807                 0.886861
                 2.412457                -8.311592                 1.680567                 0.290000                 2.897532                 0.884690
                 2.422467                -8.164856                 1.674627                 0.291518                 2.872253                 0.882427
                 2.432477                -8.019271                 1.669222                 0.293158                 2.846965                 0.880068
                 2.442487                -7.874804                 1.664361                 0.294925                 2.821664                 0.877607
                 2.452497                -7.731425                 1.660053                 0.296826                 2.796342                 0.875038
                 2.462508                -7.589100                 1.656309                 0.298865                 2.770996                 0.872354
                 2.472518                -7.447800                 1.653142                 0.301051                 2.745620                 0.869550
                 2.482528                -7.307492                 1.650566                 0.303389                 2.720209                 0.866618
                 2.492538                -7.168146                 1.648593                 0.305889                 2.694757                 0.863550
                 2.502548                -7.029734                 1.647240                 0.308558                 2.669259                 0.860338
                 2.512559                -6.892225                 1.646525                 0.311404                 2.643709                 0.856973
                 2.522569                -6.755591                 1.646465                 0.314439                 2.618103                 0.853446
                 2.532579                -6.619804                 1.647081                 0.317671                 2.592435                 0.849747
                 2.542589                -6.484837                 1.648395                 0.321112                 2.566700                 0.845866
                 2.552599                -6.350665                 1.650429                 0.324773                 2.540894                 0.841789
                 2.562610                -6.217261                 1.653210                 0.328668                 2.515012                 0.837507
                 2.572620                -6.084603                 1.656764                 0.332811                 2.489049                 0.833005
                 2.582630                -5.952667                 1.661120                 0.337214                 2.463002                 0.828270
                 2.592640                -5.821433                 1.666309                 0.341896                 2.436868                 0.823287
                 2.602650                -5.690880                 1.672365                 0.346871                 2.410643                 0.818041
                 2.612661                -5.560991                 1.679322                 0.352159                 2.384325                 0.812516
                 2.622671                -5.431751                 1.687217                 0.357778                 2.357913                 0.806693
                 2.632681                -5.303147                 1.696092                 0.363748                 2.331407                 0.800557
                 2.642691                -5.175167                 1.705986                 0.370093                 2.304807                 0.794087
                 2.652701                -5.047805                 1.716944                 0.376834                 2.278115                 0.787264
                 2.662712                -4.921057                 1.729011                 0.383997                 2.251335                 0.780069
                 2.672722                -4.794922                 1.742235                 0.391606                 2.224472                 0.772482
                 2.682732                -4.669403                 1.756666                 0.399690                 2.197534                 0.764482
                 2.692742                -4.544507                 1.772353                 0.408277                 2.170529                 0.756050
                 2.702752                -4.420248                 1.789350                 0.417395                 2.143471                 0.747166
                 2.712763                -4.296642                 1.807708                 0.427077                 2.116373                 0.737812
                 2.722773                -4.173711                 1.827482                 0.437352                 2.089255                 0.727971
                 2.732783                -4.051483                 1.848724                 0.448254                 2.062138                 0.717629
                 2.742793                -3.929991                 1.871488                 0.459814                 2.035048                 0.706773
                 2.752803                -3.809274                 1.895825                 0.472065                 2.008014                 0.695398
                 2.762813                -3.689377                 1.921787                 0.485038                 1.981070                 0.683498
                 2.772824                -3.570350                 1.949423                 0.498764                 1.954256                 0.671077
                 2.782834                -3.452249                 1.978779                 0.513272                 1.927614                 0.658143
                 2.792844                -3.335135                 2.009900                 0.528589                 1.901195                 0.644713
                 2.802854                -3.219077                 2.042828                 0.544739                 1.875051                 0.630813
                 2.812864                -3.104147                 2.077600                 0.561743                 1.849244                 0.616475
                 2.822875                -2.990425                 2.114251                 0.579616                 1.823837                 0.601746
                 2.832885                -2.877994                 2.152813                 0.598369                 1.798900                 0.586678
                 2.842895                -2.766947                 2.193312                 0.618006                 1.774508                 0.571337
                 2.852905                -2.657381                 2.235771                 0.638522                 1.750740                 0.555799
                 2.862915                -2.549401                 2.280205                 0.659904                 1.727679                 0.540149
                 2.872926                -2.443122                 2.326626                 0.682131                 1.705410                 0.524481
                 2.882936                -2.338665                 2.375033                 0.705167                 1.684021                 0.508895
                 2.892946                -2.236160                 2.425420                 0.728969                 1.663597                 0.493498
                 2.902956                -2.135746                 2.477765                 0.753476                 1.644224                 0.478396
                 2.912966                -2.037570                 2.532033                 0.778617                 1.625981                 0.463697
                 2.922977                -1.941787                 2.588170                 0.804308                 1.608943                 0.449503
                 2.932987                -1.848554                 2.646101                 0.830450                 1.593173                 0.435907
                 2.942997                -1.758034                 2.705727                 0.856935                 1.578724                 0.422996
                 2.953007                -1.670382                 2.766923                 0.883643                 1.565633                 0.410838
                 2.963017                -1.585751                 2.829535                 0.910450                 1.553921                 0.399488
                 2.973028                -1.504277                 2.893380                 0.937225                 1.543589                 0.388983
                 2.983038                -1.426076                 2.958245                 0.963837                 1.534620                 0.379342
                 2.993048                -1.351237                 3.023894                 0.990159                 1.526975                 0.370567
                 3.003058                -1.279815                 3.090067                 1.016070                 1.520597                 0.362641
                 3.013068                -1.211825                 3.156489                 1.041463                 1.515411                 0.355534
                 3.023079                -1.147237                 3.222879                 1.066242                 1.511327                 0.349204
                 3.033089                -1.085975                 3.288957                 1.090329                 1.508241                 0.343597
                 3.043099                -1.027914                 3.354456                 1.113665                 1.506043                 0.338654
                 3.053109                -0.972885                 3.419130                 1.136214                 1.504615                 0.334309
                 3.063119                -0.920678                 3.482766                 1.157956                 1.503842                 0.330498
                 3.073129                -0.871048                 3.545192                 1.178894                 1.503609                 0.327155
                 3.083140                -0.823728                 3.606286                 1.199049                 1.503811                 0.324219
                 3.093150                -0.778436                 3.665975                 1.218457                 1.504352                 0.321631
                 3.103160                -0.734890                 3.724246                 1.237168                 1.505150                 0.319339
                 3.113170                -0.692820                 3.781136                 1.255242                 1.506138                 0.317299
                 3.123180                -0.651978                 3.836730                 1.272744                 1.507267                 0.315473
                 3.133191                -0.612153                 3.891158                 1.289741                 1.508504                 0.313831
                 3.143201                -0.573173                 3.944575                 1.306298                 1.509830                 0.312348
                 3.153211                -0.534913                 3.997156                 1.322474                 1.511242                 0.311008
                 3.163221                -0.497296                 4.049081                 1.338321                 1.512746                 0.309801
                 3.173231                -0.460284                 4.100520                 1.353881                 1.514357                 0.308718
                 3.183242                -0.423873                 4.151629                 1.369185                 1.516094                 0.307756
                 3.193252                -0.388086                 4.202540                 1.384257                 1.517977                 0.306913
                 3.203262                -0.352960                 4.253363                 1.399111                 1.520024                 0.306186
                 3.213272                -0.318537                 4.304185                 1.413757                 1.522250                 0.305575
                 3.223282                -0.284858                 4.355076                 1.428202                 1.524670                 0.305078
                 3.233293                -0.251958                 4.406095                 1.442452                 1.527294                 0.304691
                 3.243303                -0.219870                 4.457301                 1.456511                 1.530129                 0.304415
                 3.253313                -0.188624                 4.508750                 1.470386                 1.533186                 0.304245
                 3.263323                -0.158251                 4.560506                 1.484082                 1.536474                 0.304180
                 3.273333                -0.128793                 4.612636                 1.497605                 1.540004                 0.304220
                 3.283344                -0.100303                 4.665209                 1.510957                 1.543792                 0.304364
                 3.293354                -0.072849                 4.718291                 1.524140                 1.547854                 0.304612
                 3.303364                -0.046513                 4.771940                 1.537149                 1.552205                 0.304966
                 3.313374                -0.021390                 4.826202                 1.549977                 1.556862                 0.305426
                 3.323384                 0.002418                 4.881105                 1.562614                 1.561840                 0.305993
                 3.333395                 0.024809                 4.936665                 1.575046                 1.567150                 0.306668
                 3.343405                 0.045683                 4.992883                 1.587258                 1.572802                 0.307450
                 3.353415                 0.064945                 5.049753                 1.599237                 1.578801                 0.308337
                 3.363425                 0.082511                 5.107267                 1.610969                 1.585153                 0.309328
                 3.373435                 0.098299                 5.165421                 1.622445                 1.591863                 0.310423
                 3.383445                 0.112227                 5.224225                 1.633655                 1.598938                 0.311619
                 3.393456                 0.124202                 5.283701                 1.644592                 1.606387                 0.312917
                 3.403466                 0.134106                 5.343887                 1.655245                 1.614228                 0.314318
                 3.413476                 0.141791                 5.404824                 1.665604                 1.622481                 0.315826
                 3.423486                 0.147061                 5.466553                 1.675648                 1.631176                 0.317443
                 3.433496                 0.149669                 5.529094                 1.685347                 1.640343                 0.319176
                 3.443507                 0.149313                 5.592428                 1.694658                 1.650016                 0.321033
                 3.453517                 0.145641                 5.656475                 1.703524                 1.660227                 0.323018
                 3.463527                 0.138266                 5.721068                 1.711871                 1.670999                 0.325137
                 3.473537                 0.126780                 5.785940                 1.719609                 1.682342                 0.327394
                 3.483547                 0.110790                 5.850704                 1.726636                 1.694250                 0.329789
                 3.493558                 0.089948                 5.914853                 1.732842                 1.706691                 0.332317
                 3.503568                 0.063988                 5.977761                 1.738116                 1.719610                 0.334968
                 3.513578                 0.032764                 6.038701                 1.742348                 1.732920                 0.337730
                 3.523588                -0.003717                 6.096876                 1.745446                 1.746510                 0.340580
                 3.533598                -0.045274                 6.151461                 1.747334                 1.760242                 0.343496
                 3.543609                -0.091540                 6.201646                 1.747968                 1.773959                 0.346448
                 3.553619                -0.141968                 6.246689                 1.747331                 1.787494                 0.349404
                 3.563629                -0.195848                 6.285965                 1.745447                 1.800675                 0.352333
                 3.573639                -0.252347                 6.319005                 1.742368                 1.813338                 0.355202
                 3.583649                -0.310550                 6.345521                 1.738184                 1.825331                 0.357981
                 3.593660                -0.369514                 6.365422                 1.733007                 1.836526                 0.360641
                 3.603670                -0.428318                 6.378808                 1.726970                 1.846820                 0.363159
                 3.613680                -0.486106                 6.385950                 1.720221                 1.856143                 0.365517
                 3.623690                -0.542126                 6.387262                 1.712907                 1.864451                 0.367700
                 3.633700                -0.595755                 6.383265                 1.705176                 1.871732                 0.369700
                 3.643711                -0.646507                 6.374547                 1.697165                 1.877998                 0.371512
                 3.653721                -0.694036                 6.361725                 1.688999                 1.883283                 0.373137
                 3.663731                -0.738129                 6.345414                 1.680784                 1.887635                 0.374578
                 3.673741                -0.778686                 6.326197                 1.672611                 1.891114                 0.375843
                 3.683751                -0.815705                 6.304606                 1.664550                 1.893787                 0.376938
                 3.693761                -0.849257                 6.281108                 1.656654                 1.895721                 0.377874
                 3.703772                -0.879461                 6.256096                 1.648962                 1.896981                 0.378661
                 3.713782                -0.906464                 6.229889                 1.641497                 1.897624                 0.379307
                 3.723792                -0.930417                 6.202736                 1.634276                 1.897702                 0.379822
                 3.733802                -0.951455                 6.174827                 1.627305                 1.897255                 0.380211
                 3.743812                -0.969687                 6.146305                 1.620593                 1.896314                 0.380479
                 3.753823                -0.985180                 6.117288                 1.614145                 1.894900                 0.380628
                 3.763833                -0.997959                 6.087883                 1.607977                 1.893026                 0.380660
                 3.773843                -1.008011                 6.058212                 1.602106                 1.890702                 0.380572
                 3.783853                -1.015294                 6.028424                 1.596563                 1.887938                 0.380363
                 3.793863                -1.019750                 5.998714                 1.591387                 1.884744                 0.380032
                 3.803874                -1.021327                 5.969324                 1.586622                 1.881142                 0.379578
                 3.813884                -1.019999                 5.940546                 1.582321                 1.877162                 0.379002
                 3.823894                -1.015784                 5.912718                 1.578536                 1.872848                 0.378309
                 3.833904                -1.008763                 5.886206                 1.575319                 1.868259                 0.377508
                 3.843914                -0.999092                 5.861390                 1.572711                 1.863467                 0.376610
                 3.853925                -0.987010                 5.838641                 1.570743                 1.858560                 0.375634
                 3.863935                -0.972836                 5.818297                 1.569432                 1.853632                 0.374600
                 3.873945                -0.956964                 5.800641                 1.568771                 1.848785                 0.373531
                 3.883955                -0.939848                 5.785879                 1.568736                 1.844121                 0.372455
                 3.893965                -0.921987                 5.774127                 1.569281                 1.839736                 0.371397
                 3.903976                -0.903894                 5.765397                 1.570339                 1.835717                 0.370385
                 3.913986                -0.886077                 5.759593                 1.571826                 1.832134                 0.369441
                 3.923996                -0.869006                 5.756519                 1.573648                 1.829036                 0.368586
                 3.934006                -0.853091                 5.755883                 1.575701                 1.826451                 0.367833
                 3.944016                -0.838661                 5.757322                 1.577882                 1.824383                 0.367192
                 3.954027                -0.825941                 5.760424                 1.580094                 1.822811                 0.366666
                 3.964037                -0.815054                 5.764751                 1.582250                 1.821694                 0.366250
                 3.974047                -0.806008                 5.769877                 1.584281                 1.820976                 0.365937
                 3.984057                -0.798717                 5.775413                 1.586137                 1.820590                 0.365714
                 3.994067                -0.793010                 5.781028                 1.587790                 1.820464                 0.365566
                 4.004078                -0.788655                 5.786472                 1.589232                 1.820525                 0.365477
                 4.014088                -0.785389                 5.791582                 1.590472                 1.820712                 0.365432
                 4.024098                -0.782943                 5.796285                 1.591537                 1.820970                 0.365416
                 4.034108                -0.781066                 5.800586                 1.592462                 1.821264                 0.365418
                 4.044118                -0.779549                 5.804557                 1.593286                 1.821568                 0.365430
                 4.054128                -0.778231                 5.808318                 1.594050                 1.821874                 0.365446
                 4.064139                -0.777013                 5.812013                 1.594790                 1.822188                 0.365466
                 4.074149                -0.775848                 5.815794                 1.595536                 1.822521                 0.365490
                 4.084159                -0.774738                 5.819805                 1.596309                 1.822894                 0.365522
                 4.094169                -0.773725                 5.824169                 1.597124                 1.823330                 0.365565
                 4.104179                -0.772873                 5.828986                 1.597987                 1.823852                 0.365625
                 4.114190                -0.772262                 5.834332                 1.598899                 1.824484                 0.365706
                 4.124200                -0.771978                 5.840262                 1.599857                 1.825245                 0.365814
                 4.134210                -0.772105                 5.846816                 1.600855                 1.826155                 0.365953
                 4.144220                -0.772730                 5.854028                 1.601886                 1.827230                 0.366128
                 4.154230                -0.773940                 5.861930                 1.602944                 1.828488                 0.366343
                 4.164241                -0.775831                 5.870553                 1.604021                 1.829949                 0.366603
                 4.174251                -0.778516                 5.879931                 1.605106                 1.831633                 0.366913
                 4.184261                -0.782128                 5.890092                 1.606186                 1.833565                 0.367280
                 4.194271                -0.786829                 5.901053                 1.607241                 1.835771                 0.367711
                 4.204281                -0.792810                 5.912806                 1.608246                 1.838278                 0.368214
                 4.214292                -0.800291                 5.925309                 1.609164                 1.841114                 0.368797
                 4.224302                -0.809511                 5.938466                 1.609950                 1.844302                 0.369469
                 4.234312                -0.820720                 5.952124                 1.610547                 1.847858                 0.370237
                 4.244322                -0.834154                 5.966056                 1.610890                 1.851789                 0.371106
                 4.254332                -0.850023                 5.979967                 1.610909                 1.856085                 0.372081
                 4.264343                -0.868482                 5.993494                 1.610529                 1.860722                 0.373161
                 4.274353                -0.889613                 6.006219                 1.609679                 1.865658                 0.374342
                 4.284363                -0.913407                 6.017687                 1.608292                 1.870832                 0.375614
                 4.294373                -0.939750                 6.027437                 1.606317                 1.876167                 0.376967
                 4.304383                -0.968423                 6.035021                 1.603715                 1.881575                 0.378384
                 4.314394                -0.999107                 6.040045                 1.600471                 1.886959                 0.379846
                 4.324404                -1.031397                 6.042183                 1.596588                 1.892218                 0.381333
                 4.334414                -1.064824                 6.041208                 1.592091                 1.897256                 0.382822
                 4.344424                -1.098886                 6.037002                 1.587028                 1.901984                 0.384292
                 4.354434                -1.133076                 6.029557                 1.581458                 1.906328                 0.385723
                 4.364444                -1.166911                 6.018970                 1.575457                 1.910230                 0.387098
                 4.374455                -1.199963                 6.005434                 1.569105                 1.913649                 0.388403
                 4.384465                -1.231870                 5.989208                 1.562484                 1.916566                 0.389628
                 4.394475                -1.262352                 5.970600                 1.555673                 1.918976                 0.390764
                 4.404485                -1.291215                 5.949938                 1.548744                 1.920891                 0.391810
                 4.414495                -1.318343                 5.927549                 1.541759                 1.922333                 0.392763
                 4.424506                -1.343687                 5.903735                 1.534769                 1.923331                 0.393627
                 4.434516                -1.367252                 5.878766                 1.527811                 1.923918                 0.394404
                 4.444526                -1.389077                 5.852867                 1.520916                 1.924126                 0.395098
                 4.454536                -1.409219                 5.826220                 1.514101                 1.923986                 0.395715
                 4.464546                -1.427736                 5.798968                 1.507383                 1.923522                 0.396256
                 4.474557                -1.444676                 5.771222                 1.500769                 1.922754                 0.396726
                 4.484567                -1.460067                 5.743073                 1.494272                 1.921696                 0.397125
                 4.494577                -1.473920                 5.714609                 1.487902                 1.920358                 0.397454
                 4.504587                -1.486222                 5.685920                 1.481676                 1.918746                 0.397711
                 4.514597                -1.496950                 5.657114                 1.475614                 1.916869                 0.397896
                 4.524608                -1.506074                 5.628322                 1.469740                 1.914735                 0.398007
                 4.534618                -1.513571                 5.599703                 1.464084                 1.912358                 0.398043
                 4.544628                -1.519438                 5.571442                 1.458677                 1.909758                 0.398004
                 4.554638                -1.523699                 5.543747                 1.453553                 1.906965                 0.397893
                 4.564648                -1.526417                 5.516841                 1.448740                 1.904013                 0.397713
                 4.574659                -1.527700                 5.490953                 1.444266                 1.900949                 0.397472
                 4.584669                -1.527704                 5.466302                 1.440150                 1.897824                 0.397179
                 4.594679                -1.526628                 5.443088                 1.436401                 1.894697                 0.396846
                 4.604689                -1.524717                 5.421482                 1.433019                 1.891629                 0.396486
                 4.614699                -1.522248                 5.401613                 1.429993                 1.888684                 0.396117
                 4.624710                -1.519526                 5.383564                 1.427301                 1.885925                 0.395756
                 4.634720                -1.516871                 5.367368                 1.424907                 1.883410                 0.395419
                 4.644730                -1.514613                 5.353003                 1.422769                 1.881192                 0.395126
                 4.654740                -1.513077                 5.340394                 1.420832                 1.879319                 0.394893
                 4.664750                -1.512577                 5.329415                 1.419036                 1.877829                 0.394737
                 4.674760                -1.513412                 5.319889                 1.417314                 1.876750                 0.394672
                 4.684771                -1.515852                 5.311592                 1.415593                 1.876101                 0.394712
                 4.694781                -1.520137                 5.304259                 1.413798                 1.875890                 0.394868
                 4.704791                -1.526469                 5.297584                 1.411852                 1.876112                 0.395147
                 4.714801                -1.535004                 5.291228                 1.409677                 1.876751                 0.395555
                 4.724811                -1.545852                 5.284821                 1.407199                 1.877781                 0.396095
                 4.734822                -1.559065                 5.277976                 1.404344                 1.879161                 0.396767
                 4.744832                -1.574637                 5.270289                 1.401045                 1.880842                 0.397567
                 4.754842                -1.592500                 5.261350                 1.397243                 1.882761                 0.398490
                 4.764852                -1.612521                 5.250757                 1.392886                 1.884848                 0.399525
                 4.774862                -1.634504                 5.238119                 1.387931                 1.887024                 0.400661
                 4.784873                -1.658188                 5.223071                 1.382350                 1.889200                 0.401882
                 4.794883                -1.683250                 5.205283                 1.376123                 1.891286                 0.403173
                 4.804893                -1.709312                 5.184472                 1.369246                 1.893184                 0.404512
                 4.814903                -1.735942                 5.160410                 1.361732                 1.894797                 0.405878
                 4.824913                -1.762668                 5.132935                 1.353604                 1.896025                 0.407248
                 4.834924                -1.788983                 5.101966                 1.344906                 1.896775                 0.408595
                 4.844934                -1.814364                 5.067501                 1.335693                 1.896955                 0.409893
                 4.854944                -1.838285                 5.029632                 1.326039                 1.896487                 0.411115
                 4.864954                -1.860237                 4.988537                 1.316028                 1.895301                 0.412235
                 4.874964                -1.879747                 4.944483                 1.305755                 1.893342                 0.413226
                 4.884975                -1.896392                 4.897816                 1.295327                 1.890572                 0.414064
                 4.894985                -1.909818                 4.848945                 1.284849                 1.886970                 0.414727
                 4.904995                -1.919752                 4.798327                 1.274433                 1.882534                 0.415195
                 4.915005                -1.926003                 4.746450                 1.264185                 1.877277                 0.415453
                 4.925015                -1.928469                 4.693813                 1.254206                 1.871230                 0.415489
                 4.935026                -1.927127                 4.640906                 1.244587                 1.864437                 0.415295
                 4.945036                -1.922031                 4.588199                 1.235411                 1.856952                 0.414867
                 4.955046                -1.913299                 4.536126                 1.226749                 1.848841                 0.414204
                 4.965056                -1.901097                 4.485084                 1.218660                 1.840171                 0.413308
                 4.975066                -1.885637                 4.435422                 1.211191                 1.831016                 0.412185
                 4.985076                -1.867158                 4.387446                 1.204381                 1.821453                 0.410844
                 4.995087                -1.845920                 4.341414                 1.198255                 1.811556                 0.409295
                 5.005097                -1.822201                 4.297542                 1.192833                 1.801402                 0.407551
                 5.015107                -1.796282                 4.256006                 1.188121                 1.791065                 0.405627
                 5.025117                -1.768453                 4.216940                 1.184123                 1.780618                 0.403539
                 5.035127                -1.738999                 4.180443                 1.180830                 1.770129                 0.401306
                 5.045138                -1.708203                 4.146576                 1.178228                 1.759666                 0.398948
                 5.055148                -1.676335                 4.115372                 1.176298                 1.749289                 0.396483
                 5.065158                -1.643656                 4.086831                 1.175014                 1.739056                 0.393932
                 5.075168                -1.610409                 4.060927                 1.174346                 1.729016                 0.391316
                 5.085178                -1.576815                 4.037616                 1.174261                 1.719216                 0.388654
                 5.095189                -1.543078                 4.016835                 1.174724                 1.709694                 0.385964
                 5.105199                -1.509379                 3.998511                 1.175698                 1.700484                 0.383265
                 5.115209                -1.475876                 3.982565                 1.177149                 1.691614                 0.380573
                 5.125219                -1.442711                 3.968915                 1.179043                 1.683109                 0.377903
                 5.135229                -1.410009                 3.957487                 1.181347                 1.674989                 0.375268
                 5.145240                -1.377880                 3.948207                 1.184030                 1.667275                 0.372682
                 5.155250                -1.346431                 3.941015                 1.187063                 1.659985                 0.370158
                 5.165260                -1.315763                 3.935855                 1.190420                 1.653137                 0.367706
                 5.175270                -1.285981                 3.932680                 1.194072                 1.646751                 0.365340
                 5.185280                -1.257197                 3.931448                 1.197992                 1.640848                 0.363071
                 5.195291                -1.229533                 3.932119                 1.202151                 1.635451                 0.360912
                 5.205301                -1.203125                 3.934649                 1.206515                 1.630584                 0.358877
                 5.215311                -1.178122                 3.938984                 1.211048                 1.626271                 0.356979
                 5.225321                -1.154690                 3.945052                 1.215705                 1.622537                 0.355233
                 5.235331                -1.133004                 3.952762                 1.220437                 1.619404                 0.353652
                 5.245342                -1.113247                 3.961990                 1.225188                 1.616890                 0.352249
                 5.255352                -1.095601                 3.972578                 1.229896                 1.615006                 0.351037
                 5.265362                -1.080237                 3.984330                 1.234491                 1.613755                 0.350025
                 5.275372                -1.067307                 3.997015                 1.238901                 1.613129                 0.349219
                 5.285382                -1.056931                 4.010362                 1.243055                 1.613108                 0.348624
                 5.295393                -1.049186                 4.024077                 1.246880                 1.613659                 0.348238
                 5.305403                -1.044100                 4.037844                 1.250310                 1.614737                 0.348056
                 5.315413                -1.041645                 4.051344                 1.253289                 1.616285                 0.348068
                 5.325423                -1.041737                 4.064267                 1.255769                 1.618238                 0.348261
                 5.335433                -1.044241                 4.076327                 1.257719                 1.620524                 0.348618
                 5.345443                -1.048975                 4.087270                 1.259118                 1.623069                 0.349122
                 5.355454                -1.055725                 4.096892                 1.259961                 1.625801                 0.349752
                 5.365464                -1.064260                 4.105034                 1.260256                 1.628651                 0.350489
                 5.375474                -1.074343                 4.111592                 1.260018                 1.631560                 0.351315
                 5.385484                -1.085744                 4.116502                 1.259273                 1.634476                 0.352211
                 5.395494                -1.098252                 4.119741                 1.258047                 1.637356                 0.353165
                 5.405505                -1.111680                 4.121311                 1.256370                 1.640166                 0.354164
                 5.415515                -1.125865                 4.121234                 1.254270                 1.642881                 0.355197
                 5.425525                -1.140672                 4.119537                 1.251773                 1.645481                 0.356257
                 5.435535                -1.155982                 4.116249                 1.248901                 1.647949                 0.357337
                 5.445545                -1.171692                 4.111396                 1.245673                 1.650271                 0.358433
                 5.455556                -1.187711                 4.105001                 1.242107                 1.652435                 0.359539
                 5.465566                -1.203950                 4.097080                 1.238217                 1.654428                 0.360652
                 5.475576                -1.220328                 4.087649                 1.234016                 1.656238                 0.361767
                 5.485586                -1.236761                 4.076721                 1.229518                 1.657853                 0.362880
                 5.495596                -1.253170                 4.064309                 1.224735                 1.659261                 0.363988
                 5.505607                -1.269479                 4.050424                 1.219677                 1.660449                 0.365087
                 5.515617                -1.285612                 4.035076                 1.214356                 1.661406                 0.366173
                 5.525627                -1.301494                 4.018271                 1.208779                 1.662120                 0.367243
                 5.535637                -1.317049                 4.000007                 1.202956                 1.662574                 0.368292
                 5.545647                -1.332191                 3.980281                 1.196895                 1.662753                 0.369316
                 5.555658                -1.346827                 3.959083                 1.190603                 1.662637                 0.370310
                 5.565668                -1.360844                 3.936406                 1.184093                 1.662203                 0.371265
                 5.575678                -1.374116                 3.912247                 1.177377                 1.661425                 0.372175
                 5.585688                -1.386494                 3.886622                 1.170476                 1.660274                 0.373027
                 5.595698                -1.397816                 3.859563                 1.163416                 1.658720                 0.373811
                 5.605709                -1.407909                 3.831135                 1.156229                 1.656736                 0.374513
                 5.615719                -1.416596                 3.801435                 1.148958                 1.654297                 0.375118
                 5.625729                -1.423707                 3.770599                 1.141648                 1.651384                 0.375613
                 5.635739                -1.429089                 3.738796                 1.134355                 1.647983                 0.375984
                 5.645749                -1.432614                 3.706231                 1.127134                 1.644094                 0.376218
                 5.655759                -1.434193                 3.673132                 1.120046                 1.639724                 0.376305
                 5.665770                -1.433776                 3.639745                 1.113146                 1.634891                 0.376236
                 5.675780                -1.431358                 3.606323                 1.106489                 1.629625                 0.376008
                 5.685790                -1.426980                 3.573112                 1.100122                 1.623961                 0.375619
                 5.695800                -1.420724                 3.540347                 1.094087                 1.617946                 0.375071
                 5.705810                -1.412709                 3.508236                 1.088413                 1.611630                 0.374369
                 5.715821                -1.403085                 3.476961                 1.083121                 1.605066                 0.373523
                 5.725831                -1.392026                 3.446668                 1.078223                 1.598309                 0.372543
                 5.735841                -1.379719                 3.417463                 1.073720                 1.591413                 0.371442
                 5.745851                -1.366358                 3.389418                 1.069603                 1.584427                 0.370235
                 5.755861                -1.352135                 3.362563                 1.065857                 1.577399                 0.368937
                 5.765872                -1.337233                 3.336894                 1.062458                 1.570366                 0.367564
                 5.775882                -1.321819                 3.312375                 1.059376                 1.563361                 0.366129
                 5.785892                -1.306034                 3.288942                 1.056582                 1.556406                 0.364646
                 5.795902                -1.289994                 3.266512                 1.054043                 1.549516                 0.363125
                 5.805912                -1.273782                 3.244987                 1.051726                 1.542696                 0.361574
                 5.815923                -1.257449                 3.224267                 1.049605                 1.535943                 0.359997
                 5.825933                -1.241013                 3.204258                 1.047658                 1.529248                 0.358397
                 5.835943                -1.224464                 3.184876                 1.045869                 1.522598                 0.356773
                 5.845953                -1.207770                 3.166061                 1.044231                 1.515978                 0.355121
                 5.855963                -1.190884                 3.147774                 1.042744                 1.509370                 0.353437
                 5.865974                -1.173749                 3.130007                 1.041417                 1.502764                 0.351716
                 5.875984                -1.156312                 3.112777                 1.040263                 1.496148                 0.349951
                 5.885994                -1.138526                 3.096128                 1.039303                 1.489522                 0.348137
                 5.896004                -1.120361                 3.080126                 1.038556                 1.482889                 0.346272
                 5.906014                -1.101808                 3.064856                 1.038046                 1.476261                 0.344355
                 5.916025                -1.082880                 3.050411                 1.037795                 1.469659                 0.342388
                 5.926035                -1.063620                 3.036890                 1.037820                 1.463110                 0.340376
                 5.936045                -1.044096                 3.024392                 1.038135                 1.456647                 0.338327
                 5.946055                -1.024405                 3.013004                 1.038745                 1.450309                 0.336252
                 5.956065                -1.004668                 3.002801                 1.039650                 1.444140                 0.334167
                 5.966075                -0.985028                 2.993835                 1.040839                 1.438184                 0.332089
                 5.976086                -0.965647                 2.986131                 1.042290                 1.432486                 0.330036
                 5.986096                -0.946699                 2.979687                 1.043974                 1.427088                 0.328030
                 5.996106                -0.928360                 2.974461                 1.045851                 1.422028                 0.326091
                 6.006116                -0.910805                 2.970380                 1.047874                 1.417337                 0.324239
                 6.016126                -0.894199                 2.967333                 1.049985                 1.413035                 0.322493
                 6.026137                -0.878685                 2.965174                 1.052127                 1.409133                 0.320867
                 6.036147                -0.864378                 2.963733                 1.054237                 1.405629                 0.319373
                 6.046157                -0.851361                 2.962812                 1.056254                 1.402510                 0.318019
                 6.056167                -0.839675                 2.962202                 1.058120                 1.399748                 0.316808
                 6.066177                -0.829319                 2.961691                 1.059786                 1.397306                 0.315736
                 6.076188                -0.820249                 2.961072                 1.061210                 1.395140                 0.314796
                 6.086198                -0.812383                 2.960156                 1.062362                 1.393196                 0.313978
                 6.096208                -0.805604                 2.958780                 1.063224                 1.391419                 0.313267
                 6.106218                -0.799772                 2.956814                 1.063789                 1.389755                 0.312647
                 6.116228                -0.794733                 2.954164                 1.064064                 1.388152                 0.312101
                 6.126239                -0.790328                 2.950775                 1.064062                 1.386562                 0.311611
                 6.136249                -0.786405                 2.946625                 1.063803                 1.384948                 0.311161
                 6.146259                -0.782826                 2.941719                 1.063313                 1.383279                 0.310737
                 6.156269                -0.779472                 2.936083                 1.062619                 1.381532                 0.310327
                 6.166279                -0.776246                 2.929756                 1.061744                 1.379690                 0.309921
                 6.176290                -0.773067                 2.922781                 1.060713                 1.377744                 0.309512
                 6.186300                -0.769874                 2.915197                 1.059544                 1.375685                 0.309094
                 6.196310                -0.766614                 2.907040                 1.058255                 1.373506                 0.308661
                 6.206320                -0.763238                 2.898339                 1.056861                 1.371201                 0.308209
                 6.216330                -0.759698                 2.889117                 1.055375                 1.368764                 0.307733
                 6.226341                -0.755940                 2.879396                 1.053810                 1.366183                 0.307227
                 6.236351                -0.751906                 2.869201                 1.052184                 1.363451                 0.306685
                 6.246361                -0.747532                 2.858567                 1.050514                 1.360556                 0.306101
                 6.256371                -0.742749                 2.847536                 1.048824                 1.357490                 0.305467
                 6.266381                -0.737491                 2.836170                 1.047138                 1.354249                 0.304777
                 6.276391                -0.731700                 2.824543                 1.045485                 1.350829                 0.304025
                 6.286402                -0.725324                 2.812745                 1.043896                 1.347235                 0.303205
                 6.296412                -0.718332                 2.800880                 1.042400                 1.343477                 0.302314
                 6.306422                -0.710709                 2.789058                 1.041027                 1.339570                 0.301352
                 6.316432                -0.702462                 2.777395                 1.039805                 1.335536                 0.300320
                 6.326442                -0.693621                 2.766006                 1.038756                 1.331403                 0.299222
                 6.336453                -0.684237                 2.755000                 1.037897                 1.327203                 0.298065
                 6.346463                -0.674382                 2.744478                 1.037241                 1.322970                 0.296857
                 6.356473                -0.664147                 2.734526                 1.036792                 1.318744                 0.295611
                 6.366483                -0.653639                 2.725213                 1.036548                 1.314561                 0.294337
                 6.376493                -0.642977                 2.716589                 1.036500                 1.310462                 0.293052
                 6.386504                -0.632292                 2.708682                 1.036631                 1.306482                 0.291769
                 6.396514                -0.621717                 2.701496                 1.036918                 1.302657                 0.290505
                 6.406524                -0.611392                 2.695010                 1.037328                 1.299016                 0.289276
                 6.416534                -0.601451                 2.689179                 1.037826                 1.295582                 0.288096
                 6.426544                -0.592024                 2.683926                 1.038369                 1.292376                 0.286979
                 6.436555                -0.583227                 2.679152                 1.038911                 1.289404                 0.285938
                 6.446565                -0.575158                 2.674732                 1.039402                 1.286668                 0.284980
                 6.456575                -0.567891                 2.670517                 1.039793                 1.284158                 0.284113
                 6.466585                -0.561473                 2.666344                 1.040035                 1.281853                 0.283339
                 6.476595                -0.555914                 2.662034                 1.040083                 1.279722                 0.282655
                 6.486606                -0.551189                 2.657409                 1.039899                 1.277724                 0.282057
                 6.496616                -0.547235                 2.652293                 1.039453                 1.275812                 0.281534
                 6.506626                -0.543953                 2.646521                 1.038723                 1.273930                 0.281072
                 6.516636                -0.541208                 2.639951                 1.037701                 1.272019                 0.280655
                 6.526646                -0.538838                 2.632468                 1.036391                 1.270017                 0.280263
                 6.536657                -0.536657                 2.623991                 1.034807                 1.267865                 0.279874
                 6.546667                -0.534465                 2.614475                 1.032976                 1.265506                 0.279465
                 6.556677                -0.532052                 2.603917                 1.030938                 1.262887                 0.279013
                 6.566687                -0.529211                 2.592354                 1.028739                 1.259967                 0.278495
                 6.576697                -0.525743                 2.579868                 1.026438                 1.256709                 0.277890
                 6.586707                -0.521466                 2.566574                 1.024097                 1.253092                 0.277177
                 6.596718                -0.516224                 2.552629                 1.021783                 1.249105                 0.276341
                 6.606728                -0.509893                 2.538215                 1.019566                 1.244752                 0.275369
                 6.616738                -0.502390                 2.523537                 1.017514                 1.240050                 0.274252
                 6.626748                -0.493675                 2.508816                 1.015690                 1.235031                 0.272989
                 6.636758                -0.483755                 2.494272                 1.014149                 1.229737                 0.271582
                 6.646769                -0.472682                 2.480118                 1.012936                 1.224223                 0.270039
                 6.656779                -0.460550                 2.466549                 1.012084                 1.218550                 0.268375
                 6.666789                -0.447488                 2.453730                 1.011611                 1.212784                 0.266606
                 6.676799                -0.433653                 2.441791                 1.011520                 1.206991                 0.264755
                 6.686809                -0.419217                 2.430824                 1.011803                 1.201234                 0.262845
                 6.696820                -0.404359                 2.420881                 1.012438                 1.195570                 0.260899
                 6.706830                -0.389252                 2.411973                 1.013392                 1.190049                 0.258940
                 6.716840                -0.374058                 2.404081                 1.014630                 1.184708                 0.256990
                 6.726850                -0.358918                 2.397158                 1.016110                 1.179575                 0.255065
                 6.736860                -0.343951                 2.391139                 1.017791                 1.174670                 0.253180
                 6.746871                -0.329254                 2.385949                 1.019634                 1.170003                 0.251346
                 6.756881                -0.314899                 2.381510                 1.021602                 1.165577                 0.249573
                 6.766891                -0.300941                 2.377744                 1.023663                 1.161390                 0.247865
                 6.776901                -0.287424                 2.374581                 1.025790                 1.157441                 0.246227
                 6.786911                -0.274381                 2.371956                 1.027957                 1.153723                 0.244661
                 6.796922                -0.261843                 2.369808                 1.030142                 1.150233                 0.243170
                 6.806932                -0.249837                 2.368081                 1.032324                 1.146966                 0.241757
                 6.816942                -0.238394                 2.366718                 1.034480                 1.143916                 0.240421
                 6.826952                -0.227544                 2.365656                 1.036588                 1.141078                 0.239166
                 6.836962                -0.217313                 2.364829                 1.038624                 1.138443                 0.237992
                 6.846973                -0.207725                 2.364159                 1.040563                 1.136000                 0.236899
                 6.856983                -0.198793                 2.363563                 1.042381                 1.133733                 0.235885
                 6.866993                -0.190518                 2.362948                 1.044054                 1.131622                 0.234946
                 6.877003                -0.182889                 2.362220                 1.045562                 1.129641                 0.234078
                 6.887013                -0.175872                 2.361281                 1.046888                 1.127762                 0.233273
                 6.897024                -0.169421                 2.360039                 1.048020                 1.125951                 0.232522
                 6.907034                -0.163468                 2.358409                 1.048952                 1.124174                 0.231814
                 6.917044                -0.157930                 2.356319                 1.049685                 1.122394                 0.231138
                 6.927054                -0.152712                 2.353711                 1.050226                 1.120574                 0.230479
                 6.937064                -0.147709                 2.350547                 1.050589                 1.118681                 0.229825
                 6.947074                -0.142811                 2.346810                 1.050795                 1.116683                 0.229162
                 6.957085                -0.137905                 2.342502                 1.050869                 1.114554                 0.228479
                 6.967095                -0.132886                 2.337646                 1.050841                 1.112274                 0.227763
                 6.977105                -0.127653                 2.332284                 1.050743                 1.109826                 0.227006
                 6.987115                -0.122115                 2.326474                 1.050610                 1.107202                 0.226198
                 6.997125                -0.116196                 2.320286                 1.050476                 1.104398                 0.225334
                 7.007136                -0.109834                 2.313804                 1.050375                 1.101418                 0.224409
                 7.017146                -0.102980                 2.307118                 1.050341                 1.098270                 0.223421
                 7.027156                -0.095606                 2.300324                 1.050406                 1.094969                 0.222371
                 7.037166                -0.087697                 2.293524                 1.050596                 1.091535                 0.221261
                 7.047176                -0.079260                 2.286817                 1.050935                 1.087991                 0.220094
                 7.057187                -0.070316                 2.280303                 1.051444                 1.084367                 0.218878
                 7.067197                -0.060909                 2.274072                 1.052136                 1.080694                 0.217621
                 7.077207                -0.051098                 2.268208                 1.053016                 1.077005                 0.216333
                 7.087217                -0.040957                 2.262779                 1.054086                 1.073337                 0.215027
                 7.097227                -0.030574                 2.257836                 1.055336                 1.069723                 0.213714
                 7.107238                -0.020045                 2.253407                 1.056753                 1.066194                 0.212407
                 7.117248                -0.009468                 2.249501                 1.058313                 1.062777                 0.211119
                 7.127258                 0.001060                 2.246100                 1.059991                 1.059491                 0.209859
                 7.137268                 0.011453                 2.243168                 1.061756                 1.056348                 0.208635
                 7.147278                 0.021639                 2.240647                 1.063577                 1.053355                 0.207455
                 7.157289                 0.031566                 2.238470                 1.065424                 1.050506                 0.206320
                 7.167299                 0.041202                 2.236557                 1.067272                 1.047792                 0.205231
                 7.177309                 0.050539                 2.234832                 1.069098                 1.045195                 0.204185
                 7.187319                 0.059589                 2.233222                 1.070889                 1.042696                 0.203177
                 7.197329                 0.068382                 2.231665                 1.072636                 1.040272                 0.202202
                 7.207340                 0.076962                 2.230116                 1.074338                 1.037902                 0.201253
                 7.217350                 0.085381                 2.228548                 1.076003                 1.035568                 0.200323
                 7.227360                 0.093692                 2.226950                 1.077639                 1.033254                 0.199406
                 7.237370                 0.101942                 2.225332                 1.079261                 1.030952                 0.198497
                 7.247380                 0.110172                 2.223715                 1.080883                 1.028657                 0.197594
                 7.257390                 0.118409                 2.222131                 1.082519                 1.026371                 0.196695
                 7.267401                 0.126667                 2.220618                 1.084181                 1.024100                 0.195800
                 7.277411                 0.134945                 2.219214                 1.085877                 1.021853                 0.194911
                 7.287421                 0.143232                 2.217952                 1.087613                 1.019642                 0.194032
                 7.297431                 0.151505                 2.216860                 1.089389                 1.017479                 0.193166
                 7.307441                 0.159734                 2.215956                 1.091201                 1.015375                 0.192317
                 7.317452                 0.167889                 2.215248                 1.093044                 1.013339                 0.191489
                 7.327462                 0.175936                 2.214735                 1.094908                 1.011379                 0.190685
                 7.337472                 0.183847                 2.214406                 1.096784                 1.009499                 0.189906
                 7.347482                 0.191599                 2.214245                 1.098662                 1.007700                 0.189156
                 7.357492                 0.199175                 2.214231                 1.100533                 1.005981                 0.188433
                 7.367503                 0.206564                 2.214343                 1.102389                 1.004339                 0.187738
                 7.377513                 0.213765                 2.214561                 1.104223                 1.002768                 0.187070
                 7.387523                 0.220778                 2.214868                 1.106034                 1.001266                 0.186427
                 7.397533                 0.227608                 2.215255                 1.107819                 0.999827                 0.185810
                 7.407543                 0.234258                 2.215716                 1.109577                 0.998451                 0.185216
                 7.417554                 0.240729                 2.216251                 1.111309                 0.997135                 0.184645
                 7.427564                 0.247017                 2.216863                 1.113014                 0.995883                 0.184099
                 7.437574                 0.253112                 2.217557                 1.114690                 0.994697                 0.183577
                 7.447584                 0.258993                 2.218337                 1.116333                 0.993582                 0.183082
                 7.457594                 0.264634                 2.219200                 1.117935                 0.992544                 0.182616
                 7.467605                 0.270003                 2.220137                 1.119486                 0.991588                 0.182180
                 7.477615                 0.275061                 2.221125                 1.120971                 0.990715                 0.181778
                 7.487625                 0.279770                 2.222130                 1.122373                 0.989925                 0.181410
                 7.497635                 0.284097                 2.223102                 1.123672                 0.989213                 0.181075
                 7.507645                 0.288014                 2.223976                 1.124847                 0.988568                 0.180774
                 7.517656                 0.291508                 2.224675                 1.125878                 0.987974                 0.180502
                 7.527666                 0.294586                 2.225112                 1.126746                 0.987406                 0.180253
                 7.537676                 0.297270                 2.225194                 1.127438                 0.986836                 0.180021
                 7.547686                 0.299610                 2.224828                 1.127945                 0.986231                 0.179796
                 7.557696                 0.301676                 2.223927                 1.128267                 0.985550                 0.179566
                 7.567706                 0.303563                 2.222416                 1.128410                 0.984756                 0.179319
                 7.577717                 0.305385                 2.220237                 1.128390                 0.983808                 0.179043
                 7.587727                 0.307273                 2.217352                 1.128232                 0.982667                 0.178722
                 7.597737                 0.309368                 2.213753                 1.127970                 0.981299                 0.178344
                 7.607747                 0.311820                 2.209459                 1.127646                 0.979677                 0.177897
                 7.617757                 0.314774                 2.204518                 1.127309                 0.977779                 0.177371
                 7.627768                 0.318372                 2.199014                 1.127012                 0.975594                 0.176757
                 7.637778                 0.322740                 2.193055                 1.126813                 0.973123                 0.176051
                 7.647788                 0.327981                 2.186777                 1.126769                 0.970375                 0.175249
                 7.657798                 0.334177                 2.180339                 1.126938                 0.967374                 0.174356
                 7.667808                 0.341373                 2.173915                 1.127370                 0.964153                 0.173375
                 7.677819                 0.349585                 2.167686                 1.128113                 0.960757                 0.172319
                 7.687829                 0.358791                 2.161834                 1.129203                 0.957239                 0.171199
                 7.697839                 0.368937                 2.156537                 1.130665                 0.953659                 0.170032
                 7.707849                 0.379935                 2.151956                 1.132513                 0.950080                 0.168838
                 7.717859                 0.391672                 2.148233                 1.134751                 0.946566                 0.167636
                 7.727870                 0.404015                 2.145486                 1.137367                 0.943181                 0.166448
                 7.737880                 0.416814                 2.143803                 1.140342                 0.939982                 0.165292
                 7.747890                 0.429914                 2.143248                 1.143647                 0.937024                 0.164190
                 7.757900                 0.443157                 2.143855                 1.147243                 0.934350                 0.163156
                 7.767910                 0.456388                 2.145635                 1.151092                 0.932000                 0.162206
                 7.777921                 0.469464                 2.148579                 1.155148                 0.930002                 0.161351
                 7.787931                 0.482247                 2.152663                 1.159367                 0.928378                 0.160602
                 7.797941                 0.494610                 2.157852                 1.163706                 0.927147                 0.159965
                 7.807951                 0.506435                 2.164100                 1.168119                 0.926318                 0.159446
                 7.817961                 0.517612                 2.171358                 1.172564                 0.925902                 0.159050
                 7.827972                 0.528030                 2.179569                 1.176998                 0.925902                 0.158779
                 7.837982                 0.537585                 2.188671                 1.181379                 0.926321                 0.158635
                 7.847992                 0.546170                 2.198593                 1.185661                 0.927159                 0.158619
                 7.858002                 0.553678                 2.209251                 1.189801                 0.928412                 0.158732
                 7.868012                 0.560006                 2.220549                 1.193751                 0.930072                 0.158972
                 7.878022                 0.565053                 2.232370                 1.197461                 0.932126                 0.159336
                 7.888033                 0.568729                 2.244583                 1.200884                 0.934555                 0.159822
                 7.898043                 0.570955                 2.257035                 1.203970                 0.937330                 0.160422
                 7.908053                 0.571670                 2.269554                 1.206672                 0.940419                 0.161129
                 7.918063                 0.570836                 2.281956                 1.208947                 0.943778                 0.161932
                 7.928073                 0.568444                 2.294041                 1.210757                 0.947358                 0.162821
                 7.938084                 0.564511                 2.305606                 1.212069                 0.951104                 0.163780
                 7.948094                 0.559091                 2.316445                 1.212858                 0.954953                 0.164795
                 7.958104                 0.552267                 2.326355                 1.213111                 0.958838                 0.165850
                 7.968114                 0.544157                 2.335146                 1.212821                 0.962692                 0.166926
                 7.978124                 0.534912                 2.342647                 1.211993                 0.966444                 0.168005
                 7.988135                 0.524707                 2.348706                 1.210642                 0.970025                 0.169070
                 7.998145                 0.513744                 2.353205                 1.208796                 0.973367                 0.170100
                 8.008155                 0.502242                 2.356055                 1.206489                 0.976409                 0.171078
                 8.018165                 0.490432                 2.357205                 1.203768                 0.979094                 0.171988
                 8.028175                 0.478552                 2.356642                 1.200686                 0.981374                 0.172813
                 8.038186                 0.466834                 2.354393                 1.197302                 0.983208                 0.173538
                 8.048196                 0.455502                 2.350521                 1.193682                 0.984568                 0.174153
                 8.058206                 0.444766                 2.345123                 1.189893                 0.985434                 0.174647
                 8.068216                 0.434809                 2.338329                 1.186006                 0.985800                 0.175013
                 8.078226                 0.425788                 2.330293                 1.182087                 0.985669                 0.175247
                 8.088237                 0.417829                 2.321186                 1.178202                 0.985054                 0.175347
                 8.098247                 0.411023                 2.311194                 1.174411                 0.983980                 0.175314
                 8.108257                 0.405427                 2.300504                 1.170765                 0.982479                 0.175152
                 8.118267                 0.401066                 2.289302                 1.167312                 0.980587                 0.174868
                 8.128277                 0.397933                 2.277765                 1.164087                 0.978348                 0.174470
                 8.138288                 0.395997                 2.266056                 1.161119                 0.975807                 0.173968
                 8.148298                 0.395205                 2.254323                 1.158427                 0.973010                 0.173372
                 8.158308                 0.395489                 2.242690                 1.156024                 0.970001                 0.172694
                 8.168318                 0.396767                 2.231265                 1.153914                 0.966825                 0.171945
                 8.178328                 0.398955                 2.220134                 1.152096                 0.963520                 0.171137
                 8.188338                 0.401962                 2.209367                 1.150564                 0.960123                 0.170281
                 8.198349                 0.405699                 2.199014                 1.149309                 0.956668                 0.169386
                 8.208359                 0.410080                 2.189112                 1.148318                 0.953182                 0.168462
                 8.218369                 0.415021                 2.179687                 1.147577                 0.949691                 0.167517
                 8.228379                 0.420444                 2.170750                 1.147069                 0.946216                 0.166560
                 8.238389                 0.426276                 2.162304                 1.146778                 0.942774                 0.165597
                 8.248400                 0.432450                 2.154344                 1.146684                 0.939380                 0.164633
                 8.258410                 0.438906                 2.146855                 1.146771                 0.936043                 0.163674
                 8.268420                 0.445592                 2.139817                 1.147020                 0.932772                 0.162722
                 8.278430                 0.452468                 2.133204                 1.147417                 0.929568                 0.161781
                 8.288440                 0.459499                 2.126990                 1.147945                 0.926434                 0.160851
                 8.298451                 0.466665                 2.121146                 1.148594                 0.923366                 0.159933
                 8.308461                 0.473952                 2.115644                 1.149355                 0.920362                 0.159028
                 8.318471                 0.481357                 2.110465                 1.150222                 0.917417                 0.158134
                 8.328481                 0.488882                 2.105594                 1.151192                 0.914528                 0.157251
                 8.338491                 0.496536                 2.101025                 1.152267                 0.911692                 0.156379
                 8.348502                 0.504324                 2.096760                 1.153448                 0.908910                 0.155518
                 8.358512                 0.512254                 2.092813                 1.154740                 0.906184                 0.154667
                 8.368522                 0.520327                 2.089202                 1.156147                 0.903520                 0.153830
                 8.378532                 0.528536                 2.085955                 1.157672                 0.900926                 0.153008
                 8.388542                 0.536868                 2.083098                 1.159318                 0.898415                 0.152205
                 8.398553                 0.545298                 2.080663                 1.161083                 0.896000                 0.151425
                 8.408563                 0.553793                 2.078675                 1.162965                 0.893696                 0.150673
                 8.418573                 0.562312                 2.077157                 1.164954                 0.891519                 0.149953
                 8.428583                 0.570805                 2.076124                 1.167041                 0.889482                 0.149270
                 8.438593                 0.579220                 2.075582                 1.169211                 0.887600                 0.148629
                 8.448604                 0.587500                 2.075527                 1.171447                 0.885882                 0.148034
                 8.458614                 0.595588                 2.075945                 1.173729                 0.884337                 0.147487
                 8.468624                 0.603429                 2.076811                 1.176038                 0.882970                 0.146991
                 8.478634                 0.610976                 2.078090                 1.178351                 0.881779                 0.146547
                 8.488644                 0.618184                 2.079741                 1.180647                 0.880763                 0.146155
                 8.498655                 0.625019                 2.081712                 1.182907                 0.879914                 0.145813
                 8.508665                 0.631458                 2.083953                 1.185111                 0.879222                 0.145518
                 8.518675                 0.637484                 2.086406                 1.187246                 0.878675                 0.145269
                 8.528685                 0.643093                 2.089020                 1.189298                 0.878258                 0.145061
                 8.538695                 0.648289                 2.091741                 1.191257                 0.877955                 0.144890
                 8.548705                 0.653082                 2.094522                 1.193118                 0.877752                 0.144751
                 8.558716                 0.657488                 2.097321                 1.194875                 0.877632                 0.144641
                 8.568726                 0.661527                 2.100100                 1.196527                 0.877582                 0.144556
                 8.578736                 0.665223                 2.102826                 1.198074                 0.877586                 0.144491
                 8.588746                 0.668600                 2.105474                 1.199517                 0.877634                 0.144442
                 8.598756                 0.671684                 2.108018                 1.200859                 0.877712                 0.144407
                 8.608767                 0.674500                 2.110439                 1.202103                 0.877811                 0.144382
                 8.618777                 0.677077                 2.112722                 1.203254                 0.877920                 0.144364
                 8.628787                 0.679441                 2.114852                 1.204316                 0.878030                 0.144350
                 8.638797                 0.681620                 2.116820                 1.205296                 0.878133                 0.144338
                 8.648807                 0.683642                 2.118619                 1.206199                 0.878221                 0.144325
                 8.658818                 0.685533                 2.120245                 1.207031                 0.878289                 0.144310
                 8.668828                 0.687321                 2.121698                 1.207802                 0.878331                 0.144291
                 8.678838                 0.689030                 2.122979                 1.208517                 0.878341                 0.144266
                 8.688848                 0.690688                 2.124091                 1.209184                 0.878316                 0.144233
                 8.698858                 0.692319                 2.125041                 1.209812                 0.878252                 0.144192
                 8.708869                 0.693948                 2.125837                 1.210410                 0.878148                 0.144141
                 8.718879                 0.695600                 2.126490                 1.210985                 0.878000                 0.144080
                 8.728889                 0.697302                 2.127015                 1.211548                 0.877809                 0.144008
                 8.738899                 0.699078                 2.127433                 1.212111                 0.877573                 0.143924
                 8.748909                 0.700951                 2.127769                 1.212684                 0.877297                 0.143830
                 8.758920                 0.702942                 2.128055                 1.213279                 0.876985                 0.143725
                 8.768930                 0.705065                 2.128329                 1.213907                 0.876644                 0.143611
                 8.778940                 0.707326                 2.128634                 1.214579                 0.876285                 0.143492
                 8.788950                 0.709724                 2.129016                 1.215302                 0.875920                 0.143369
                 8.798960                 0.712243                 2.129522                 1.216083                 0.875566                 0.143247
                 8.808971                 0.714861                 2.130197                 1.216924                 0.875238                 0.143131
                 8.818981                 0.717542                 2.131079                 1.217821                 0.874956                 0.143025
                 8.828991                 0.720243                 2.132202                 1.218771                 0.874734                 0.142934
                 8.839001                 0.722914                 2.133587                 1.219763                 0.874590                 0.142861
                 8.849011                 0.725501                 2.135246                 1.220785                 0.874538                 0.142813
                 8.859021                 0.727947                 2.137180                 1.221822                 0.874587                 0.142791
                 8.869032                 0.730200                 2.139380                 1.222858                 0.874746                 0.142798
                 8.879042                 0.732206                 2.141827                 1.223873                 0.875020                 0.142837
                 8.889052                 0.733919                 2.144495                 1.224852                 0.875410                 0.142907
                 8.899062                 0.735295                 2.147353                 1.225775                 0.875916                 0.143010
                 8.909072                 0.736298                 2.150362                 1.226626                 0.876535                 0.143145
                 8.919083                 0.736891                 2.153483                 1.227388                 0.877263                 0.143311
                 8.929093                 0.737046                 2.156669                 1.228043                 0.878092                 0.143508
                 8.939103                 0.736733                 2.159870                 1.228576                 0.879014                 0.143733
                 8.949113                 0.735932                 2.163030                 1.228969                 0.880018                 0.143983
                 8.959123                 0.734623                 2.166086                 1.229206                 0.881092                 0.144258
                 8.969134                 0.732797                 2.168969                 1.229271                 0.882218                 0.144551
                 8.979144                 0.730454                 2.171602                 1.229149                 0.883376                 0.144859
                 8.989154                 0.727605                 2.173905                 1.228829                 0.884543                 0.145177
                 8.999164                 0.724278                 2.175791                 1.228302                 0.885691                 0.145496
                 9.009174                 0.720519                 2.177179                 1.227564                 0.886789                 0.145810
                 9.019185                 0.716391                 2.177991                 1.226616                 0.887804                 0.146110
                 9.029195                 0.711973                 2.178158                 1.225467                 0.888705                 0.146388
                 9.039205                 0.707362                 2.177629                 1.224132                 0.889459                 0.146634
                 9.049215                 0.702663                 2.176369                 1.222631                 0.890035                 0.146841
                 9.059225                 0.697990                 2.174368                 1.220992                 0.890411                 0.147000
                 9.069236                 0.693454                 2.171633                 1.219245                 0.890565                 0.147106
                 9.079246                 0.689165                 2.168199                 1.217427                 0.890484                 0.147153
                 9.089256                 0.685222                 2.164115                 1.215571                 0.890164                 0.147139
                 9.099266                 0.681709                 2.159450                 1.213715                 0.889604                 0.147062
                 9.109276                 0.678698                 2.154284                 1.211892                 0.888810                 0.146923
                 9.119287                 0.676239                 2.148704                 1.210133                 0.887797                 0.146723
                 9.129297                 0.674367                 2.142802                 1.208466                 0.886579                 0.146465
                 9.139307                 0.673099                 2.136670                 1.206914                 0.885179                 0.146154
                 9.149317                 0.672439                 2.130399                 1.205496                 0.883619                 0.145795
                 9.159327                 0.672373                 2.124072                 1.204227                 0.881924                 0.145394
                 9.169337                 0.672877                 2.117769                 1.203115                 0.880119                 0.144957
                 9.179348                 0.673916                 2.111560                 1.202167                 0.878231                 0.144491
                 9.189358                 0.675446                 2.105504                 1.201382                 0.876284                 0.144003
                 9.199368                 0.677414                 2.099652                 1.200758                 0.874303                 0.143500
                 9.209378                 0.679764                 2.094042                 1.200287                 0.872309                 0.142987
                 9.219388                 0.682436                 2.088701                 1.199957                 0.870323                 0.142470
                 9.229399                 0.685369                 2.083641                 1.199757                 0.868360                 0.141955
                 9.239409                 0.688502                 2.078864                 1.199669                 0.866432                 0.141445
                 9.249419                 0.691783                 2.074358                 1.199678                 0.864548                 0.140944
                 9.259429                 0.695161                 2.070102                 1.199764                 0.862712                 0.140452
                 9.269439                 0.698600                 2.066064                 1.199912                 0.860923                 0.139972
                 9.279450                 0.702070                 2.062209                 1.200107                 0.859178                 0.139501
                 9.289460                 0.705555                 2.058497                 1.200335                 0.857467                 0.139039
                 9.299470                 0.709051                 2.054885                 1.200589                 0.855782                 0.138584
                 9.309480                 0.712563                 2.051337                 1.200861                 0.854111                 0.138132
                 9.319490                 0.716109                 2.047817                 1.201151                 0.852440                 0.137680
                 9.329501                 0.719715                 2.044296                 1.201458                 0.850756                 0.137225
                 9.339511                 0.723413                 2.040757                 1.201789                 0.849049                 0.136764
                 9.349521                 0.727243                 2.037186                 1.202153                 0.847307                 0.136292
                 9.359531                 0.731245                 2.033585                 1.202561                 0.845523                 0.135809
                 9.369541                 0.735463                 2.029964                 1.203027                 0.843690                 0.135312
                 9.379552                 0.739938                 2.026343                 1.203568                 0.841807                 0.134801
                 9.389562                 0.744707                 2.022754                 1.204200                 0.839875                 0.134274
                 9.399572                 0.749803                 2.019237                 1.204939                 0.837900                 0.133734
                 9.409582                 0.755250                 2.015842                 1.205804                 0.835891                 0.133183
                 9.419592                 0.761064                 2.012622                 1.206809                 0.833861                 0.132624
                 9.429603                 0.767250                 2.009637                 1.207967                 0.831826                 0.132060
                 9.439613                 0.773802                 2.006946                 1.209288                 0.829805                 0.131497
                 9.449623                 0.780706                 2.004610                 1.210780                 0.827818                 0.130941
                 9.459633                 0.787937                 2.002684                 1.212446                 0.825886                 0.130396
                 9.469643                 0.795464                 2.001222                 1.214287                 0.824032                 0.129870
                 9.479653                 0.803248                 2.000272                 1.216301                 0.822277                 0.129368
                 9.489664                 0.811247                 1.999879                 1.218483                 0.820643                 0.128896
                 9.499674                 0.819413                 2.000083                 1.220828                 0.819150                 0.128460
                 9.509684                 0.827698                 2.000922                 1.223326                 0.817820                 0.128065
                 9.519694                 0.836047                 2.002431                 1.225969                 0.816672                 0.127718
                 9.529704                 0.844403                 2.004644                 1.228745                 0.815728                 0.127423
                 9.539715                 0.852700                 2.007596                 1.231641                 0.815009                 0.127186
                 9.549725                 0.860865                 2.011318                 1.234639                 0.814537                 0.127013
                 9.559735                 0.868814                 2.015836                 1.237721                 0.814334                 0.126911
                 9.569745                 0.876452                 2.021171                 1.240861                 0.814423                 0.126883
                 9.579755                 0.883670                 2.027332                 1.244030                 0.814825                 0.126937
                 9.589766                 0.890351                 2.034314                 1.247191                 0.815558                 0.127076
                 9.599776                 0.896364                 2.042091                 1.250304                 0.816638                 0.127304
                 9.609786                 0.901577                 2.050615                 1.253323                 0.818071                 0.127623
                 9.619796                 0.905856                 2.059812                 1.256196                 0.819861                 0.128034
                 9.629806                 0.909073                 2.069577                 1.258870                 0.821998                 0.128534
                 9.639817                 0.911113                 2.079781                 1.261291                 0.824465                 0.129120
                 9.649827                 0.911879                 2.090266                 1.263406                 0.827234                 0.129784
                 9.659837                 0.911303                 2.100854                 1.265167                 0.830267                 0.130518
                 9.669847                 0.909345                 2.111348                 1.266529                 0.833517                 0.131310
                 9.679857                 0.906004                 2.121545                 1.267459                 0.836928                 0.132148
                 9.689868                 0.901310                 2.131235                 1.267930                 0.840439                 0.133016
                 9.699878                 0.895336                 2.140217                 1.267928                 0.843982                 0.133900
                 9.709888                 0.888188                 2.148298                 1.267449                 0.847489                 0.134783
                 9.719898                 0.880004                 2.155309                 1.266500                 0.850892                 0.135648
                 9.729908                 0.870952                 2.161103                 1.265100                 0.854123                 0.136481
                 9.739919                 0.861224                 2.165561                 1.263280                 0.857119                 0.137264
                 9.749929                 0.851030                 2.168602                 1.261079                 0.859820                 0.137984
                 9.759939                 0.840594                 2.170178                 1.258547                 0.862176                 0.138628
                 9.769949                 0.830145                 2.170282                 1.255742                 0.864143                 0.139183
                 9.779959                 0.819910                 2.168946                 1.252728                 0.865689                 0.139640
                 9.789969                 0.810107                 2.166244                 1.249575                 0.866793                 0.139991
                 9.799980                 0.800941                 2.162287                 1.246355                 0.867444                 0.140233
                 9.809990                 0.792588                 2.157220                 1.243142                 0.867648                 0.140363
                 9.820000                 0.785197                 2.151218                 1.240007                 0.867422                 0.140384
                 9.830010                 0.778880                 2.144482                 1.237018                 0.866795                 0.140300
                 9.840020                 0.773705                 2.137223                 1.234233                 0.865810                 0.140121
                 9.850031                 0.769703                 2.129664                 1.231705                 0.864519                 0.139856
                 9.860041                 0.766858                 2.122020                 1.229470                 0.862982                 0.139520
                 9.870051                 0.765116                 2.114500                 1.227556                 0.861265                 0.139128
                 9.880061                 0.764385                 2.107292                 1.225975                 0.859435                 0.138699
                 9.890071                 0.764542                 2.100560                 1.224727                 0.857563                 0.138248
                 9.900082                 0.765437                 2.094437                 1.223798                 0.855712                 0.137794
                 9.910092                 0.766902                 2.089026                 1.223162                 0.853945                 0.137353
                 9.920102                 0.768757                 2.084392                 1.222783                 0.852315                 0.136941
                 9.930112                 0.770814                 2.080566                 1.222616                 0.850867                 0.136570
                 9.940122                 0.772886                 2.077543                 1.222607                 0.849636                 0.136251
                 9.950133                 0.774791                 2.075281                 1.222699                 0.848648                 0.135992
                 9.960143                 0.776358                 2.073707                 1.222830                 0.847913                 0.135798
                 9.970153                 0.777436                 2.072714                 1.222938                 0.847432                 0.135671
                 9.980163                 0.777895                 2.072167                 1.222960                 0.847193                 0.135608
                 9.990173                 0.777633                 2.071907                 1.222838                 0.847172                 0.135606
                10.000184                 0.776583                 2.071758                 1.222519                 0.847331                 0.135657
