# E (eV)   ldos(E)   pdos(E)    pdos(E)    pdos(E)   
  -5.898  0.222E-06  0.740E-07  0.740E-07  0.740E-07
  -5.888  0.355E-06  0.118E-06  0.118E-06  0.118E-06
  -5.878  0.561E-06  0.187E-06  0.187E-06  0.187E-06
  -5.868  0.878E-06  0.293E-06  0.293E-06  0.293E-06
  -5.858  0.136E-05  0.453E-06  0.453E-06  0.453E-06
  -5.848  0.208E-05  0.695E-06  0.695E-06  0.695E-06
  -5.838  0.317E-05  0.106E-05  0.106E-05  0.106E-05
  -5.828  0.476E-05  0.159E-05  0.159E-05  0.159E-05
  -5.818  0.708E-05  0.236E-05  0.236E-05  0.236E-05
  -5.808  0.104E-04  0.348E-05  0.348E-05  0.348E-05
  -5.798  0.152E-04  0.507E-05  0.507E-05  0.507E-05
  -5.788  0.220E-04  0.733E-05  0.733E-05  0.733E-05
  -5.778  0.315E-04  0.105E-04  0.105E-04  0.105E-04
  -5.768  0.446E-04  0.149E-04  0.149E-04  0.149E-04
  -5.758  0.625E-04  0.208E-04  0.208E-04  0.208E-04
  -5.748  0.868E-04  0.289E-04  0.289E-04  0.289E-04
  -5.738  0.119E-03  0.398E-04  0.398E-04  0.398E-04
  -5.728  0.163E-03  0.543E-04  0.543E-04  0.543E-04
  -5.718  0.220E-03  0.733E-04  0.733E-04  0.733E-04
  -5.708  0.294E-03  0.979E-04  0.979E-04  0.979E-04
  -5.698  0.389E-03  0.130E-03  0.130E-03  0.130E-03
  -5.688  0.511E-03  0.170E-03  0.170E-03  0.170E-03
  -5.678  0.664E-03  0.221E-03  0.221E-03  0.221E-03
  -5.668  0.855E-03  0.285E-03  0.285E-03  0.285E-03
  -5.658  0.109E-02  0.364E-03  0.364E-03  0.364E-03
  -5.648  0.138E-02  0.460E-03  0.460E-03  0.460E-03
  -5.638  0.173E-02  0.577E-03  0.577E-03  0.577E-03
  -5.628  0.215E-02  0.717E-03  0.717E-03  0.717E-03
  -5.618  0.265E-02  0.883E-03  0.883E-03  0.883E-03
  -5.608  0.323E-02  0.108E-02  0.108E-02  0.108E-02
  -5.598  0.392E-02  0.131E-02  0.131E-02  0.131E-02
  -5.588  0.470E-02  0.157E-02  0.157E-02  0.157E-02
  -5.578  0.560E-02  0.187E-02  0.187E-02  0.187E-02
  -5.568  0.661E-02  0.220E-02  0.220E-02  0.220E-02
  -5.558  0.774E-02  0.258E-02  0.258E-02  0.258E-02
  -5.548  0.900E-02  0.300E-02  0.300E-02  0.300E-02
  -5.538  0.104E-01  0.346E-02  0.346E-02  0.346E-02
  -5.528  0.119E-01  0.396E-02  0.396E-02  0.396E-02
  -5.518  0.135E-01  0.450E-02  0.450E-02  0.450E-02
  -5.508  0.152E-01  0.507E-02  0.507E-02  0.507E-02
  -5.498  0.171E-01  0.569E-02  0.569E-02  0.569E-02
  -5.488  0.190E-01  0.633E-02  0.633E-02  0.633E-02
  -5.478  0.210E-01  0.699E-02  0.699E-02  0.699E-02
  -5.468  0.230E-01  0.768E-02  0.768E-02  0.768E-02
  -5.458  0.252E-01  0.839E-02  0.839E-02  0.839E-02
  -5.448  0.273E-01  0.910E-02  0.910E-02  0.910E-02
  -5.438  0.295E-01  0.982E-02  0.982E-02  0.982E-02
  -5.428  0.316E-01  0.105E-01  0.105E-01  0.105E-01
  -5.418  0.338E-01  0.113E-01  0.113E-01  0.113E-01
  -5.408  0.359E-01  0.120E-01  0.120E-01  0.120E-01
  -5.398  0.380E-01  0.127E-01  0.127E-01  0.127E-01
  -5.388  0.400E-01  0.133E-01  0.133E-01  0.133E-01
  -5.378  0.419E-01  0.140E-01  0.140E-01  0.140E-01
  -5.368  0.438E-01  0.146E-01  0.146E-01  0.146E-01
  -5.358  0.456E-01  0.152E-01  0.152E-01  0.152E-01
  -5.348  0.473E-01  0.158E-01  0.158E-01  0.158E-01
  -5.338  0.490E-01  0.163E-01  0.163E-01  0.163E-01
  -5.328  0.505E-01  0.168E-01  0.168E-01  0.168E-01
  -5.318  0.520E-01  0.173E-01  0.173E-01  0.173E-01
  -5.308  0.534E-01  0.178E-01  0.178E-01  0.178E-01
  -5.298  0.547E-01  0.182E-01  0.182E-01  0.182E-01
  -5.288  0.559E-01  0.186E-01  0.186E-01  0.186E-01
  -5.278  0.570E-01  0.190E-01  0.190E-01  0.190E-01
  -5.268  0.581E-01  0.194E-01  0.194E-01  0.194E-01
  -5.258  0.591E-01  0.197E-01  0.197E-01  0.197E-01
  -5.248  0.600E-01  0.200E-01  0.200E-01  0.200E-01
  -5.238  0.609E-01  0.203E-01  0.203E-01  0.203E-01
  -5.228  0.617E-01  0.206E-01  0.206E-01  0.206E-01
  -5.218  0.625E-01  0.208E-01  0.208E-01  0.208E-01
  -5.208  0.632E-01  0.211E-01  0.211E-01  0.211E-01
  -5.198  0.639E-01  0.213E-01  0.213E-01  0.213E-01
  -5.188  0.645E-01  0.215E-01  0.215E-01  0.215E-01
  -5.178  0.651E-01  0.217E-01  0.217E-01  0.217E-01
  -5.168  0.657E-01  0.219E-01  0.219E-01  0.219E-01
  -5.158  0.662E-01  0.221E-01  0.221E-01  0.221E-01
  -5.148  0.668E-01  0.223E-01  0.223E-01  0.223E-01
  -5.138  0.672E-01  0.224E-01  0.224E-01  0.224E-01
  -5.128  0.677E-01  0.226E-01  0.226E-01  0.226E-01
  -5.118  0.681E-01  0.227E-01  0.227E-01  0.227E-01
  -5.108  0.685E-01  0.228E-01  0.228E-01  0.228E-01
  -5.098  0.689E-01  0.230E-01  0.230E-01  0.230E-01
  -5.088  0.693E-01  0.231E-01  0.231E-01  0.231E-01
  -5.078  0.696E-01  0.232E-01  0.232E-01  0.232E-01
  -5.068  0.699E-01  0.233E-01  0.233E-01  0.233E-01
  -5.058  0.702E-01  0.234E-01  0.234E-01  0.234E-01
  -5.048  0.705E-01  0.235E-01  0.235E-01  0.235E-01
  -5.038  0.708E-01  0.236E-01  0.236E-01  0.236E-01
  -5.028  0.711E-01  0.237E-01  0.237E-01  0.237E-01
  -5.018  0.713E-01  0.238E-01  0.238E-01  0.238E-01
  -5.008  0.715E-01  0.238E-01  0.238E-01  0.238E-01
  -4.998  0.718E-01  0.239E-01  0.239E-01  0.239E-01
  -4.988  0.720E-01  0.240E-01  0.240E-01  0.240E-01
  -4.978  0.722E-01  0.241E-01  0.241E-01  0.241E-01
  -4.968  0.723E-01  0.241E-01  0.241E-01  0.241E-01
  -4.958  0.725E-01  0.242E-01  0.242E-01  0.242E-01
  -4.948  0.727E-01  0.242E-01  0.242E-01  0.242E-01
  -4.938  0.728E-01  0.243E-01  0.243E-01  0.243E-01
  -4.928  0.730E-01  0.243E-01  0.243E-01  0.243E-01
  -4.918  0.731E-01  0.244E-01  0.244E-01  0.244E-01
  -4.908  0.733E-01  0.244E-01  0.244E-01  0.244E-01
  -4.898  0.734E-01  0.245E-01  0.245E-01  0.245E-01
  -4.888  0.735E-01  0.245E-01  0.245E-01  0.245E-01
  -4.878  0.736E-01  0.245E-01  0.245E-01  0.245E-01
  -4.868  0.737E-01  0.246E-01  0.246E-01  0.246E-01
  -4.858  0.738E-01  0.246E-01  0.246E-01  0.246E-01
  -4.848  0.739E-01  0.246E-01  0.246E-01  0.246E-01
  -4.838  0.740E-01  0.247E-01  0.247E-01  0.247E-01
  -4.828  0.740E-01  0.247E-01  0.247E-01  0.247E-01
  -4.818  0.741E-01  0.247E-01  0.247E-01  0.247E-01
  -4.808  0.742E-01  0.247E-01  0.247E-01  0.247E-01
  -4.798  0.742E-01  0.247E-01  0.247E-01  0.247E-01
  -4.788  0.743E-01  0.248E-01  0.248E-01  0.248E-01
  -4.778  0.743E-01  0.248E-01  0.248E-01  0.248E-01
  -4.768  0.744E-01  0.248E-01  0.248E-01  0.248E-01
  -4.758  0.744E-01  0.248E-01  0.248E-01  0.248E-01
  -4.748  0.745E-01  0.248E-01  0.248E-01  0.248E-01
  -4.738  0.745E-01  0.248E-01  0.248E-01  0.248E-01
  -4.728  0.745E-01  0.248E-01  0.248E-01  0.248E-01
  -4.718  0.745E-01  0.248E-01  0.248E-01  0.248E-01
  -4.708  0.746E-01  0.249E-01  0.249E-01  0.249E-01
  -4.698  0.746E-01  0.249E-01  0.249E-01  0.249E-01
  -4.688  0.746E-01  0.249E-01  0.249E-01  0.249E-01
  -4.678  0.746E-01  0.249E-01  0.249E-01  0.249E-01
  -4.668  0.746E-01  0.249E-01  0.249E-01  0.249E-01
  -4.658  0.746E-01  0.249E-01  0.249E-01  0.249E-01
  -4.648  0.746E-01  0.249E-01  0.249E-01  0.249E-01
  -4.638  0.746E-01  0.249E-01  0.249E-01  0.249E-01
  -4.628  0.746E-01  0.249E-01  0.249E-01  0.249E-01
  -4.618  0.746E-01  0.249E-01  0.249E-01  0.249E-01
  -4.608  0.746E-01  0.249E-01  0.249E-01  0.249E-01
  -4.598  0.746E-01  0.249E-01  0.249E-01  0.249E-01
  -4.588  0.745E-01  0.248E-01  0.248E-01  0.248E-01
  -4.578  0.745E-01  0.248E-01  0.248E-01  0.248E-01
  -4.568  0.745E-01  0.248E-01  0.248E-01  0.248E-01
  -4.558  0.745E-01  0.248E-01  0.248E-01  0.248E-01
  -4.548  0.745E-01  0.248E-01  0.248E-01  0.248E-01
  -4.538  0.744E-01  0.248E-01  0.248E-01  0.248E-01
  -4.528  0.744E-01  0.248E-01  0.248E-01  0.248E-01
  -4.518  0.744E-01  0.248E-01  0.248E-01  0.248E-01
  -4.508  0.744E-01  0.248E-01  0.248E-01  0.248E-01
  -4.498  0.743E-01  0.248E-01  0.248E-01  0.248E-01
  -4.488  0.743E-01  0.248E-01  0.248E-01  0.248E-01
  -4.478  0.743E-01  0.248E-01  0.248E-01  0.248E-01
  -4.468  0.742E-01  0.247E-01  0.247E-01  0.247E-01
  -4.458  0.742E-01  0.247E-01  0.247E-01  0.247E-01
  -4.448  0.742E-01  0.247E-01  0.247E-01  0.247E-01
  -4.438  0.741E-01  0.247E-01  0.247E-01  0.247E-01
  -4.428  0.741E-01  0.247E-01  0.247E-01  0.247E-01
  -4.418  0.740E-01  0.247E-01  0.247E-01  0.247E-01
  -4.408  0.740E-01  0.247E-01  0.247E-01  0.247E-01
  -4.398  0.740E-01  0.247E-01  0.247E-01  0.247E-01
  -4.388  0.739E-01  0.246E-01  0.246E-01  0.246E-01
  -4.378  0.739E-01  0.246E-01  0.246E-01  0.246E-01
  -4.368  0.738E-01  0.246E-01  0.246E-01  0.246E-01
  -4.358  0.738E-01  0.246E-01  0.246E-01  0.246E-01
  -4.348  0.737E-01  0.246E-01  0.246E-01  0.246E-01
  -4.338  0.737E-01  0.246E-01  0.246E-01  0.246E-01
  -4.328  0.736E-01  0.245E-01  0.245E-01  0.245E-01
  -4.318  0.736E-01  0.245E-01  0.245E-01  0.245E-01
  -4.308  0.735E-01  0.245E-01  0.245E-01  0.245E-01
  -4.298  0.735E-01  0.245E-01  0.245E-01  0.245E-01
  -4.288  0.734E-01  0.245E-01  0.245E-01  0.245E-01
  -4.278  0.734E-01  0.245E-01  0.245E-01  0.245E-01
  -4.268  0.734E-01  0.245E-01  0.245E-01  0.245E-01
  -4.258  0.733E-01  0.244E-01  0.244E-01  0.244E-01
  -4.248  0.733E-01  0.244E-01  0.244E-01  0.244E-01
  -4.238  0.732E-01  0.244E-01  0.244E-01  0.244E-01
  -4.228  0.732E-01  0.244E-01  0.244E-01  0.244E-01
  -4.218  0.731E-01  0.244E-01  0.244E-01  0.244E-01
  -4.208  0.731E-01  0.244E-01  0.244E-01  0.244E-01
  -4.198  0.730E-01  0.243E-01  0.243E-01  0.243E-01
  -4.188  0.730E-01  0.243E-01  0.243E-01  0.243E-01
  -4.178  0.729E-01  0.243E-01  0.243E-01  0.243E-01
  -4.168  0.729E-01  0.243E-01  0.243E-01  0.243E-01
  -4.158  0.728E-01  0.243E-01  0.243E-01  0.243E-01
  -4.148  0.728E-01  0.243E-01  0.243E-01  0.243E-01
  -4.138  0.727E-01  0.242E-01  0.242E-01  0.242E-01
  -4.128  0.727E-01  0.242E-01  0.242E-01  0.242E-01
  -4.118  0.727E-01  0.242E-01  0.242E-01  0.242E-01
  -4.108  0.726E-01  0.242E-01  0.242E-01  0.242E-01
  -4.098  0.726E-01  0.242E-01  0.242E-01  0.242E-01
  -4.088  0.725E-01  0.242E-01  0.242E-01  0.242E-01
  -4.078  0.725E-01  0.242E-01  0.242E-01  0.242E-01
  -4.068  0.725E-01  0.242E-01  0.242E-01  0.242E-01
  -4.058  0.724E-01  0.241E-01  0.241E-01  0.241E-01
  -4.048  0.724E-01  0.241E-01  0.241E-01  0.241E-01
  -4.038  0.724E-01  0.241E-01  0.241E-01  0.241E-01
  -4.028  0.723E-01  0.241E-01  0.241E-01  0.241E-01
  -4.018  0.723E-01  0.241E-01  0.241E-01  0.241E-01
  -4.008  0.723E-01  0.241E-01  0.241E-01  0.241E-01
  -3.998  0.722E-01  0.241E-01  0.241E-01  0.241E-01
  -3.988  0.722E-01  0.241E-01  0.241E-01  0.241E-01
  -3.978  0.722E-01  0.241E-01  0.241E-01  0.241E-01
  -3.968  0.722E-01  0.241E-01  0.241E-01  0.241E-01
  -3.958  0.721E-01  0.240E-01  0.240E-01  0.240E-01
  -3.948  0.721E-01  0.240E-01  0.240E-01  0.240E-01
  -3.938  0.721E-01  0.240E-01  0.240E-01  0.240E-01
  -3.928  0.721E-01  0.240E-01  0.240E-01  0.240E-01
  -3.918  0.721E-01  0.240E-01  0.240E-01  0.240E-01
  -3.908  0.721E-01  0.240E-01  0.240E-01  0.240E-01
  -3.898  0.721E-01  0.240E-01  0.240E-01  0.240E-01
  -3.888  0.720E-01  0.240E-01  0.240E-01  0.240E-01
  -3.878  0.720E-01  0.240E-01  0.240E-01  0.240E-01
  -3.868  0.721E-01  0.240E-01  0.240E-01  0.240E-01
  -3.858  0.721E-01  0.240E-01  0.240E-01  0.240E-01
  -3.848  0.721E-01  0.240E-01  0.240E-01  0.240E-01
  -3.838  0.721E-01  0.240E-01  0.240E-01  0.240E-01
  -3.828  0.721E-01  0.240E-01  0.240E-01  0.240E-01
  -3.818  0.721E-01  0.240E-01  0.240E-01  0.240E-01
  -3.808  0.721E-01  0.240E-01  0.240E-01  0.240E-01
  -3.798  0.722E-01  0.241E-01  0.241E-01  0.241E-01
  -3.788  0.722E-01  0.241E-01  0.241E-01  0.241E-01
  -3.778  0.722E-01  0.241E-01  0.241E-01  0.241E-01
  -3.768  0.723E-01  0.241E-01  0.241E-01  0.241E-01
  -3.758  0.723E-01  0.241E-01  0.241E-01  0.241E-01
  -3.748  0.724E-01  0.241E-01  0.241E-01  0.241E-01
  -3.738  0.724E-01  0.241E-01  0.241E-01  0.241E-01
  -3.728  0.725E-01  0.242E-01  0.242E-01  0.242E-01
  -3.718  0.726E-01  0.242E-01  0.242E-01  0.242E-01
  -3.708  0.727E-01  0.242E-01  0.242E-01  0.242E-01
  -3.698  0.727E-01  0.242E-01  0.242E-01  0.242E-01
  -3.688  0.728E-01  0.243E-01  0.243E-01  0.243E-01
  -3.678  0.729E-01  0.243E-01  0.243E-01  0.243E-01
  -3.668  0.731E-01  0.244E-01  0.244E-01  0.244E-01
  -3.658  0.732E-01  0.244E-01  0.244E-01  0.244E-01
  -3.648  0.733E-01  0.244E-01  0.244E-01  0.244E-01
  -3.638  0.735E-01  0.245E-01  0.245E-01  0.245E-01
  -3.628  0.736E-01  0.245E-01  0.245E-01  0.245E-01
  -3.618  0.738E-01  0.246E-01  0.246E-01  0.246E-01
  -3.608  0.740E-01  0.247E-01  0.247E-01  0.247E-01
  -3.598  0.742E-01  0.247E-01  0.247E-01  0.247E-01
  -3.588  0.744E-01  0.248E-01  0.248E-01  0.248E-01
  -3.578  0.746E-01  0.249E-01  0.249E-01  0.249E-01
  -3.568  0.749E-01  0.250E-01  0.250E-01  0.250E-01
  -3.558  0.751E-01  0.250E-01  0.250E-01  0.250E-01
  -3.548  0.754E-01  0.251E-01  0.251E-01  0.251E-01
  -3.538  0.757E-01  0.252E-01  0.252E-01  0.252E-01
  -3.528  0.761E-01  0.254E-01  0.254E-01  0.254E-01
  -3.518  0.764E-01  0.255E-01  0.255E-01  0.255E-01
  -3.508  0.768E-01  0.256E-01  0.256E-01  0.256E-01
  -3.498  0.773E-01  0.258E-01  0.258E-01  0.258E-01
  -3.488  0.778E-01  0.259E-01  0.259E-01  0.259E-01
  -3.478  0.783E-01  0.261E-01  0.261E-01  0.261E-01
  -3.468  0.789E-01  0.263E-01  0.263E-01  0.263E-01
  -3.458  0.795E-01  0.265E-01  0.265E-01  0.265E-01
  -3.448  0.802E-01  0.267E-01  0.267E-01  0.267E-01
  -3.438  0.810E-01  0.270E-01  0.270E-01  0.270E-01
  -3.428  0.819E-01  0.273E-01  0.273E-01  0.273E-01
  -3.418  0.828E-01  0.276E-01  0.276E-01  0.276E-01
  -3.408  0.839E-01  0.280E-01  0.280E-01  0.280E-01
  -3.398  0.850E-01  0.283E-01  0.283E-01  0.283E-01
  -3.388  0.863E-01  0.288E-01  0.288E-01  0.288E-01
  -3.378  0.877E-01  0.292E-01  0.292E-01  0.292E-01
  -3.368  0.892E-01  0.297E-01  0.297E-01  0.297E-01
  -3.358  0.909E-01  0.303E-01  0.303E-01  0.303E-01
  -3.348  0.927E-01  0.309E-01  0.309E-01  0.309E-01
  -3.338  0.946E-01  0.315E-01  0.315E-01  0.315E-01
  -3.328  0.966E-01  0.322E-01  0.322E-01  0.322E-01
  -3.318  0.987E-01  0.329E-01  0.329E-01  0.329E-01
  -3.308  0.101E+00  0.336E-01  0.336E-01  0.336E-01
  -3.298  0.103E+00  0.344E-01  0.344E-01  0.344E-01
  -3.288  0.105E+00  0.351E-01  0.351E-01  0.351E-01
  -3.278  0.107E+00  0.358E-01  0.358E-01  0.358E-01
  -3.268  0.109E+00  0.365E-01  0.365E-01  0.365E-01
  -3.258  0.111E+00  0.371E-01  0.371E-01  0.371E-01
  -3.248  0.113E+00  0.376E-01  0.376E-01  0.376E-01
  -3.238  0.114E+00  0.380E-01  0.380E-01  0.380E-01
  -3.228  0.115E+00  0.383E-01  0.383E-01  0.383E-01
  -3.218  0.115E+00  0.384E-01  0.384E-01  0.384E-01
  -3.208  0.115E+00  0.384E-01  0.384E-01  0.384E-01
  -3.198  0.114E+00  0.381E-01  0.381E-01  0.381E-01
  -3.188  0.113E+00  0.377E-01  0.377E-01  0.377E-01
  -3.178  0.111E+00  0.370E-01  0.370E-01  0.370E-01
  -3.168  0.108E+00  0.361E-01  0.361E-01  0.361E-01
  -3.158  0.105E+00  0.350E-01  0.350E-01  0.350E-01
  -3.148  0.101E+00  0.337E-01  0.337E-01  0.337E-01
  -3.138  0.967E-01  0.322E-01  0.322E-01  0.322E-01
  -3.128  0.917E-01  0.306E-01  0.306E-01  0.306E-01
  -3.118  0.863E-01  0.288E-01  0.288E-01  0.288E-01
  -3.108  0.805E-01  0.268E-01  0.268E-01  0.268E-01
  -3.098  0.745E-01  0.248E-01  0.248E-01  0.248E-01
  -3.088  0.684E-01  0.228E-01  0.228E-01  0.228E-01
  -3.078  0.622E-01  0.207E-01  0.207E-01  0.207E-01
  -3.068  0.561E-01  0.187E-01  0.187E-01  0.187E-01
  -3.058  0.501E-01  0.167E-01  0.167E-01  0.167E-01
  -3.048  0.444E-01  0.148E-01  0.148E-01  0.148E-01
  -3.038  0.389E-01  0.130E-01  0.130E-01  0.130E-01
  -3.028  0.338E-01  0.113E-01  0.113E-01  0.113E-01
  -3.018  0.291E-01  0.970E-02  0.970E-02  0.970E-02
  -3.008  0.248E-01  0.826E-02  0.826E-02  0.826E-02
  -2.998  0.209E-01  0.698E-02  0.698E-02  0.698E-02
  -2.988  0.175E-01  0.583E-02  0.583E-02  0.583E-02
  -2.978  0.145E-01  0.482E-02  0.482E-02  0.482E-02
  -2.968  0.119E-01  0.395E-02  0.395E-02  0.395E-02
  -2.958  0.962E-02  0.321E-02  0.321E-02  0.321E-02
  -2.948  0.773E-02  0.258E-02  0.258E-02  0.258E-02
  -2.938  0.614E-02  0.205E-02  0.205E-02  0.205E-02
  -2.928  0.484E-02  0.161E-02  0.161E-02  0.161E-02
  -2.918  0.377E-02  0.126E-02  0.126E-02  0.126E-02
  -2.908  0.291E-02  0.969E-03  0.969E-03  0.969E-03
  -2.898  0.222E-02  0.739E-03  0.739E-03  0.739E-03
  -2.888  0.168E-02  0.559E-03  0.559E-03  0.559E-03
  -2.878  0.125E-02  0.418E-03  0.418E-03  0.418E-03
  -2.868  0.927E-03  0.309E-03  0.309E-03  0.309E-03
  -2.858  0.679E-03  0.226E-03  0.226E-03  0.226E-03
  -2.848  0.492E-03  0.164E-03  0.164E-03  0.164E-03
  -2.838  0.353E-03  0.118E-03  0.118E-03  0.118E-03
  -2.828  0.251E-03  0.836E-04  0.836E-04  0.836E-04
  -2.818  0.176E-03  0.587E-04  0.587E-04  0.587E-04
  -2.808  0.122E-03  0.408E-04  0.408E-04  0.408E-04
  -2.798  0.842E-04  0.281E-04  0.281E-04  0.281E-04
  -2.788  0.574E-04  0.191E-04  0.191E-04  0.191E-04
  -2.778  0.386E-04  0.129E-04  0.129E-04  0.129E-04
  -2.768  0.258E-04  0.859E-05  0.859E-05  0.859E-05
  -2.758  0.170E-04  0.566E-05  0.566E-05  0.566E-05
  -2.748  0.111E-04  0.370E-05  0.370E-05  0.370E-05
  -2.738  0.716E-05  0.239E-05  0.239E-05  0.239E-05
  -2.728  0.458E-05  0.153E-05  0.153E-05  0.153E-05
  -2.718  0.289E-05  0.965E-06  0.965E-06  0.965E-06
  -2.708  0.181E-05  0.604E-06  0.604E-06  0.604E-06
  -2.698  0.112E-05  0.374E-06  0.374E-06  0.374E-06
  -2.688  0.687E-06  0.229E-06  0.229E-06  0.229E-06
  -2.678  0.416E-06  0.139E-06  0.139E-06  0.139E-06
  -2.668  0.250E-06  0.832E-07  0.832E-07  0.832E-07
  -2.658  0.148E-06  0.493E-07  0.493E-07  0.493E-07
  -2.648  0.869E-07  0.290E-07  0.290E-07  0.290E-07
  -2.638  0.505E-07  0.168E-07  0.168E-07  0.168E-07
  -2.628  0.290E-07  0.967E-08  0.967E-08  0.967E-08
  -2.618  0.165E-07  0.550E-08  0.550E-08  0.550E-08
  -2.608  0.928E-08  0.309E-08  0.309E-08  0.309E-08
  -2.598  0.516E-08  0.172E-08  0.172E-08  0.172E-08
  -2.588  0.284E-08  0.948E-09  0.948E-09  0.948E-09
  -2.578  0.155E-08  0.516E-09  0.516E-09  0.516E-09
  -2.568  0.835E-09  0.278E-09  0.278E-09  0.278E-09
  -2.558  0.445E-09  0.148E-09  0.148E-09  0.148E-09
  -2.548  0.235E-09  0.783E-10  0.783E-10  0.783E-10
  -2.538  0.123E-09  0.409E-10  0.409E-10  0.409E-10
  -2.528  0.633E-10  0.211E-10  0.211E-10  0.211E-10
  -2.518  0.323E-10  0.108E-10  0.108E-10  0.108E-10
  -2.508  0.164E-10  0.545E-11  0.545E-11  0.545E-11
  -2.498  0.818E-11  0.273E-11  0.273E-11  0.273E-11
  -2.488  0.400E-11  0.133E-11  0.133E-11  0.133E-11
  -2.478  0.196E-11  0.654E-12  0.654E-12  0.654E-12
  -2.468  0.861E-12  0.287E-12  0.287E-12  0.287E-12
  -2.458  0.414E-12  0.138E-12  0.138E-12  0.138E-12
  -2.448  0.120E-12  0.401E-13  0.401E-13  0.401E-13
  -2.438  0.000E+00  0.000E+00  0.000E+00  0.000E+00
  -2.428  0.000E+00  0.000E+00  0.000E+00  0.000E+00
  -2.418  0.000E+00  0.000E+00  0.000E+00  0.000E+00
  -2.408  0.000E+00  0.000E+00  0.000E+00  0.000E+00
  -2.398  0.000E+00  0.000E+00  0.000E+00  0.000E+00
  -2.388  0.000E+00  0.000E+00  0.000E+00  0.000E+00
  -2.378  0.000E+00  0.000E+00  0.000E+00  0.000E+00
  -2.368  0.000E+00  0.000E+00  0.000E+00  0.000E+00
  -2.358  0.000E+00  0.000E+00  0.000E+00  0.000E+00
  -2.348  0.000E+00  0.000E+00  0.000E+00  0.000E+00
  -2.338  0.000E+00  0.000E+00  0.000E+00  0.000E+00
  -2.328  0.000E+00  0.000E+00  0.000E+00  0.000E+00
  -2.318  0.000E+00  0.000E+00  0.000E+00  0.000E+00
  -2.308  0.000E+00  0.000E+00  0.000E+00  0.000E+00
  -2.298  0.000E+00  0.000E+00  0.000E+00  0.000E+00
  -2.288  0.000E+00  0.000E+00  0.000E+00  0.000E+00
  -2.278  0.000E+00  0.000E+00  0.000E+00  0.000E+00
  -2.268  0.000E+00  0.000E+00  0.000E+00  0.000E+00
  -2.258  0.000E+00  0.000E+00  0.000E+00  0.000E+00
  -2.248  0.000E+00  0.000E+00  0.000E+00  0.000E+00
  -2.238  0.000E+00  0.000E+00  0.000E+00  0.000E+00
  -2.228  0.000E+00  0.000E+00  0.000E+00  0.000E+00
  -2.218  0.000E+00  0.000E+00  0.000E+00  0.000E+00
  -2.208  0.000E+00  0.000E+00  0.000E+00  0.000E+00
  -2.198  0.000E+00  0.000E+00  0.000E+00  0.000E+00
  -2.188  0.000E+00  0.000E+00  0.000E+00  0.000E+00
  -2.178  0.000E+00  0.000E+00  0.000E+00  0.000E+00
  -2.168  0.000E+00  0.000E+00  0.000E+00  0.000E+00
  -2.158  0.000E+00  0.000E+00  0.000E+00  0.000E+00
  -2.148  0.000E+00  0.000E+00  0.000E+00  0.000E+00
  -2.138  0.000E+00  0.000E+00  0.000E+00  0.000E+00
  -2.128  0.000E+00  0.000E+00  0.000E+00  0.000E+00
  -2.118  0.000E+00  0.000E+00  0.000E+00  0.000E+00
  -2.108  0.000E+00  0.000E+00  0.000E+00  0.000E+00
  -2.098  0.000E+00  0.000E+00  0.000E+00  0.000E+00
  -2.088  0.000E+00  0.000E+00  0.000E+00  0.000E+00
  -2.078  0.000E+00  0.000E+00  0.000E+00  0.000E+00
  -2.068  0.000E+00  0.000E+00  0.000E+00  0.000E+00
  -2.058  0.000E+00  0.000E+00  0.000E+00  0.000E+00
  -2.048  0.000E+00  0.000E+00  0.000E+00  0.000E+00
  -2.038  0.000E+00  0.000E+00  0.000E+00  0.000E+00
  -2.028  0.000E+00  0.000E+00  0.000E+00  0.000E+00
  -2.018  0.000E+00  0.000E+00  0.000E+00  0.000E+00
  -2.008  0.000E+00  0.000E+00  0.000E+00  0.000E+00
  -1.998  0.000E+00  0.000E+00  0.000E+00  0.000E+00
  -1.988  0.000E+00  0.000E+00  0.000E+00  0.000E+00
  -1.978  0.000E+00  0.000E+00  0.000E+00  0.000E+00
  -1.968  0.000E+00  0.000E+00  0.000E+00  0.000E+00
  -1.958  0.000E+00  0.000E+00  0.000E+00  0.000E+00
  -1.948  0.000E+00  0.000E+00  0.000E+00  0.000E+00
  -1.938  0.000E+00  0.000E+00  0.000E+00  0.000E+00
  -1.928  0.000E+00  0.000E+00  0.000E+00  0.000E+00
  -1.918  0.000E+00  0.000E+00  0.000E+00  0.000E+00
  -1.908  0.000E+00  0.000E+00  0.000E+00  0.000E+00
  -1.898  0.000E+00  0.000E+00  0.000E+00  0.000E+00
  -1.888  0.000E+00  0.000E+00  0.000E+00  0.000E+00
  -1.878  0.000E+00  0.000E+00  0.000E+00  0.000E+00
  -1.868  0.000E+00  0.000E+00  0.000E+00  0.000E+00
  -1.858  0.000E+00  0.000E+00  0.000E+00  0.000E+00
  -1.848  0.000E+00  0.000E+00  0.000E+00  0.000E+00
  -1.838  0.000E+00  0.000E+00  0.000E+00  0.000E+00
  -1.828  0.000E+00  0.000E+00  0.000E+00  0.000E+00
  -1.818  0.000E+00  0.000E+00  0.000E+00  0.000E+00
  -1.808  0.000E+00  0.000E+00  0.000E+00  0.000E+00
  -1.798  0.000E+00  0.000E+00  0.000E+00  0.000E+00
  -1.788  0.000E+00  0.000E+00  0.000E+00  0.000E+00
  -1.778  0.000E+00  0.000E+00  0.000E+00  0.000E+00
  -1.768  0.000E+00  0.000E+00  0.000E+00  0.000E+00
  -1.758  0.000E+00  0.000E+00  0.000E+00  0.000E+00
  -1.748  0.000E+00  0.000E+00  0.000E+00  0.000E+00
  -1.738  0.000E+00  0.000E+00  0.000E+00  0.000E+00
  -1.728  0.000E+00  0.000E+00  0.000E+00  0.000E+00
  -1.718  0.000E+00  0.000E+00  0.000E+00  0.000E+00
  -1.708  0.000E+00  0.000E+00  0.000E+00  0.000E+00
  -1.698  0.000E+00  0.000E+00  0.000E+00  0.000E+00
  -1.688  0.000E+00  0.000E+00  0.000E+00  0.000E+00
  -1.678  0.000E+00  0.000E+00  0.000E+00  0.000E+00
  -1.668  0.000E+00  0.000E+00  0.000E+00  0.000E+00
  -1.658  0.000E+00  0.000E+00  0.000E+00  0.000E+00
  -1.648  0.000E+00  0.000E+00  0.000E+00  0.000E+00
  -1.638  0.000E+00  0.000E+00  0.000E+00  0.000E+00
  -1.628  0.000E+00  0.000E+00  0.000E+00  0.000E+00
  -1.618  0.000E+00  0.000E+00  0.000E+00  0.000E+00
  -1.608  0.000E+00  0.000E+00  0.000E+00  0.000E+00
  -1.598  0.000E+00  0.000E+00  0.000E+00  0.000E+00
  -1.588  0.000E+00  0.000E+00  0.000E+00  0.000E+00
  -1.578  0.000E+00  0.000E+00  0.000E+00  0.000E+00
  -1.568  0.000E+00  0.000E+00  0.000E+00  0.000E+00
  -1.558  0.000E+00  0.000E+00  0.000E+00  0.000E+00
  -1.548  0.000E+00  0.000E+00  0.000E+00  0.000E+00
  -1.538  0.000E+00  0.000E+00  0.000E+00  0.000E+00
  -1.528  0.000E+00  0.000E+00  0.000E+00  0.000E+00
  -1.518  0.000E+00  0.000E+00  0.000E+00  0.000E+00
  -1.508  0.000E+00  0.000E+00  0.000E+00  0.000E+00
  -1.498  0.000E+00  0.000E+00  0.000E+00  0.000E+00
  -1.488  0.000E+00  0.000E+00  0.000E+00  0.000E+00
  -1.478  0.000E+00  0.000E+00  0.000E+00  0.000E+00
  -1.468  0.000E+00  0.000E+00  0.000E+00  0.000E+00
  -1.458  0.000E+00  0.000E+00  0.000E+00  0.000E+00
  -1.448  0.000E+00  0.000E+00  0.000E+00  0.000E+00
  -1.438  0.000E+00  0.000E+00  0.000E+00  0.000E+00
  -1.428  0.000E+00  0.000E+00  0.000E+00  0.000E+00
  -1.418  0.000E+00  0.000E+00  0.000E+00  0.000E+00
  -1.408  0.000E+00  0.000E+00  0.000E+00  0.000E+00
  -1.398  0.000E+00  0.000E+00  0.000E+00  0.000E+00
  -1.388  0.000E+00  0.000E+00  0.000E+00  0.000E+00
  -1.378  0.000E+00  0.000E+00  0.000E+00  0.000E+00
  -1.368  0.000E+00  0.000E+00  0.000E+00  0.000E+00
  -1.358  0.000E+00  0.000E+00  0.000E+00  0.000E+00
  -1.348  0.000E+00  0.000E+00  0.000E+00  0.000E+00
  -1.338  0.000E+00  0.000E+00  0.000E+00  0.000E+00
  -1.328  0.000E+00  0.000E+00  0.000E+00  0.000E+00
  -1.318  0.000E+00  0.000E+00  0.000E+00  0.000E+00
  -1.308  0.000E+00  0.000E+00  0.000E+00  0.000E+00
  -1.298  0.000E+00  0.000E+00  0.000E+00  0.000E+00
  -1.288  0.000E+00  0.000E+00  0.000E+00  0.000E+00
  -1.278  0.000E+00  0.000E+00  0.000E+00  0.000E+00
  -1.268  0.000E+00  0.000E+00  0.000E+00  0.000E+00
  -1.258  0.000E+00  0.000E+00  0.000E+00  0.000E+00
  -1.248  0.000E+00  0.000E+00  0.000E+00  0.000E+00
  -1.238  0.000E+00  0.000E+00  0.000E+00  0.000E+00
  -1.228  0.000E+00  0.000E+00  0.000E+00  0.000E+00
  -1.218  0.000E+00  0.000E+00  0.000E+00  0.000E+00
  -1.208  0.000E+00  0.000E+00  0.000E+00  0.000E+00
  -1.198  0.529E-12  0.176E-12  0.176E-12  0.176E-12
  -1.188  0.169E-11  0.562E-12  0.562E-12  0.562E-12
  -1.178  0.350E-11  0.117E-11  0.117E-11  0.117E-11
  -1.168  0.754E-11  0.251E-11  0.251E-11  0.251E-11
  -1.158  0.153E-10  0.511E-11  0.511E-11  0.511E-11
  -1.148  0.309E-10  0.103E-10  0.103E-10  0.103E-10
  -1.138  0.614E-10  0.205E-10  0.205E-10  0.205E-10
  -1.128  0.121E-09  0.404E-10  0.404E-10  0.404E-10
  -1.118  0.236E-09  0.787E-10  0.787E-10  0.787E-10
  -1.108  0.455E-09  0.152E-09  0.152E-09  0.152E-09
  -1.098  0.868E-09  0.289E-09  0.289E-09  0.289E-09
  -1.088  0.164E-08  0.546E-09  0.546E-09  0.546E-09
  -1.078  0.306E-08  0.102E-08  0.102E-08  0.102E-08
  -1.068  0.564E-08  0.188E-08  0.188E-08  0.188E-08
  -1.058  0.103E-07  0.344E-08  0.344E-08  0.344E-08
  -1.048  0.186E-07  0.621E-08  0.621E-08  0.621E-08
  -1.038  0.333E-07  0.111E-07  0.111E-07  0.111E-07
  -1.028  0.590E-07  0.197E-07  0.197E-07  0.197E-07
  -1.018  0.103E-06  0.344E-07  0.344E-07  0.344E-07
  -1.008  0.179E-06  0.596E-07  0.596E-07  0.596E-07
  -0.998  0.307E-06  0.102E-06  0.102E-06  0.102E-06
  -0.988  0.520E-06  0.173E-06  0.173E-06  0.173E-06
  -0.978  0.872E-06  0.291E-06  0.291E-06  0.291E-06
  -0.968  0.145E-05  0.482E-06  0.482E-06  0.482E-06
  -0.958  0.238E-05  0.792E-06  0.792E-06  0.792E-06
  -0.948  0.386E-05  0.129E-05  0.129E-05  0.129E-05
  -0.938  0.621E-05  0.207E-05  0.207E-05  0.207E-05
  -0.928  0.988E-05  0.329E-05  0.329E-05  0.329E-05
  -0.918  0.155E-04  0.518E-05  0.518E-05  0.518E-05
  -0.908  0.242E-04  0.807E-05  0.807E-05  0.807E-05
  -0.898  0.373E-04  0.124E-04  0.124E-04  0.124E-04
  -0.888  0.569E-04  0.190E-04  0.190E-04  0.190E-04
  -0.878  0.859E-04  0.286E-04  0.286E-04  0.286E-04
  -0.868  0.128E-03  0.427E-04  0.427E-04  0.427E-04
  -0.858  0.189E-03  0.631E-04  0.631E-04  0.631E-04
  -0.848  0.277E-03  0.923E-04  0.923E-04  0.923E-04
  -0.838  0.400E-03  0.133E-03  0.133E-03  0.133E-03
  -0.828  0.573E-03  0.191E-03  0.191E-03  0.191E-03
  -0.818  0.812E-03  0.271E-03  0.271E-03  0.271E-03
  -0.808  0.114E-02  0.379E-03  0.379E-03  0.379E-03
  -0.798  0.158E-02  0.526E-03  0.526E-03  0.526E-03
  -0.788  0.217E-02  0.722E-03  0.722E-03  0.722E-03
  -0.778  0.294E-02  0.981E-03  0.981E-03  0.981E-03
  -0.768  0.396E-02  0.132E-02  0.132E-02  0.132E-02
  -0.758  0.527E-02  0.176E-02  0.176E-02  0.176E-02
  -0.748  0.694E-02  0.231E-02  0.231E-02  0.231E-02
  -0.738  0.904E-02  0.301E-02  0.301E-02  0.301E-02
  -0.728  0.117E-01  0.389E-02  0.389E-02  0.389E-02
  -0.718  0.149E-01  0.497E-02  0.497E-02  0.497E-02
  -0.708  0.188E-01  0.628E-02  0.628E-02  0.628E-02
  -0.698  0.236E-01  0.785E-02  0.785E-02  0.785E-02
  -0.688  0.292E-01  0.973E-02  0.973E-02  0.973E-02
  -0.678  0.358E-01  0.119E-01  0.119E-01  0.119E-01
  -0.668  0.434E-01  0.145E-01  0.145E-01  0.145E-01
  -0.658  0.522E-01  0.174E-01  0.174E-01  0.174E-01
  -0.648  0.621E-01  0.207E-01  0.207E-01  0.207E-01
  -0.638  0.732E-01  0.244E-01  0.244E-01  0.244E-01
  -0.628  0.854E-01  0.285E-01  0.285E-01  0.285E-01
  -0.618  0.987E-01  0.329E-01  0.329E-01  0.329E-01
  -0.608  0.113E+00  0.376E-01  0.376E-01  0.376E-01
  -0.598  0.128E+00  0.427E-01  0.427E-01  0.427E-01
  -0.588  0.144E+00  0.479E-01  0.479E-01  0.479E-01
  -0.578  0.160E+00  0.533E-01  0.533E-01  0.533E-01
  -0.568  0.176E+00  0.588E-01  0.588E-01  0.588E-01
  -0.558  0.193E+00  0.642E-01  0.642E-01  0.642E-01
  -0.548  0.209E+00  0.695E-01  0.695E-01  0.695E-01
  -0.538  0.224E+00  0.746E-01  0.746E-01  0.746E-01
  -0.528  0.238E+00  0.794E-01  0.794E-01  0.794E-01
  -0.518  0.252E+00  0.838E-01  0.838E-01  0.838E-01
  -0.508  0.263E+00  0.878E-01  0.878E-01  0.878E-01
  -0.498  0.274E+00  0.912E-01  0.912E-01  0.912E-01
  -0.488  0.282E+00  0.940E-01  0.940E-01  0.940E-01
  -0.478  0.289E+00  0.962E-01  0.962E-01  0.962E-01
  -0.468  0.294E+00  0.978E-01  0.978E-01  0.978E-01
  -0.458  0.296E+00  0.988E-01  0.988E-01  0.988E-01
  -0.448  0.298E+00  0.992E-01  0.992E-01  0.992E-01
  -0.438  0.297E+00  0.990E-01  0.990E-01  0.990E-01
  -0.428  0.295E+00  0.982E-01  0.982E-01  0.982E-01
  -0.418  0.291E+00  0.971E-01  0.971E-01  0.971E-01
  -0.408  0.286E+00  0.955E-01  0.955E-01  0.955E-01
  -0.398  0.281E+00  0.936E-01  0.936E-01  0.936E-01
  -0.388  0.274E+00  0.914E-01  0.914E-01  0.914E-01
  -0.378  0.267E+00  0.890E-01  0.890E-01  0.890E-01
  -0.368  0.260E+00  0.865E-01  0.865E-01  0.865E-01
  -0.358  0.252E+00  0.839E-01  0.839E-01  0.839E-01
  -0.348  0.244E+00  0.814E-01  0.814E-01  0.814E-01
  -0.338  0.236E+00  0.788E-01  0.788E-01  0.788E-01
  -0.328  0.229E+00  0.763E-01  0.763E-01  0.763E-01
  -0.318  0.222E+00  0.739E-01  0.739E-01  0.739E-01
  -0.308  0.215E+00  0.716E-01  0.716E-01  0.716E-01
  -0.298  0.208E+00  0.695E-01  0.695E-01  0.695E-01
  -0.288  0.202E+00  0.674E-01  0.674E-01  0.674E-01
  -0.278  0.197E+00  0.655E-01  0.655E-01  0.655E-01
  -0.268  0.191E+00  0.638E-01  0.638E-01  0.638E-01
  -0.258  0.186E+00  0.622E-01  0.622E-01  0.622E-01
  -0.248  0.182E+00  0.606E-01  0.606E-01  0.606E-01
  -0.238  0.178E+00  0.593E-01  0.593E-01  0.593E-01
  -0.228  0.174E+00  0.580E-01  0.580E-01  0.580E-01
  -0.218  0.170E+00  0.568E-01  0.568E-01  0.568E-01
  -0.208  0.167E+00  0.557E-01  0.557E-01  0.557E-01
  -0.198  0.164E+00  0.547E-01  0.547E-01  0.547E-01
  -0.188  0.161E+00  0.538E-01  0.538E-01  0.538E-01
  -0.178  0.159E+00  0.529E-01  0.529E-01  0.529E-01
  -0.168  0.156E+00  0.521E-01  0.521E-01  0.521E-01
  -0.158  0.154E+00  0.513E-01  0.513E-01  0.513E-01
  -0.148  0.152E+00  0.506E-01  0.506E-01  0.506E-01
  -0.138  0.150E+00  0.499E-01  0.499E-01  0.499E-01
  -0.128  0.148E+00  0.493E-01  0.493E-01  0.493E-01
  -0.118  0.146E+00  0.487E-01  0.487E-01  0.487E-01
  -0.108  0.144E+00  0.481E-01  0.481E-01  0.481E-01
  -0.098  0.143E+00  0.475E-01  0.475E-01  0.475E-01
  -0.088  0.141E+00  0.470E-01  0.470E-01  0.470E-01
  -0.078  0.140E+00  0.465E-01  0.465E-01  0.465E-01
  -0.068  0.138E+00  0.460E-01  0.460E-01  0.460E-01
  -0.058  0.137E+00  0.456E-01  0.456E-01  0.456E-01
  -0.048  0.135E+00  0.452E-01  0.452E-01  0.452E-01
  -0.038  0.134E+00  0.447E-01  0.447E-01  0.447E-01
  -0.028  0.133E+00  0.443E-01  0.443E-01  0.443E-01
  -0.018  0.132E+00  0.439E-01  0.439E-01  0.439E-01
  -0.008  0.131E+00  0.436E-01  0.436E-01  0.436E-01
   0.002  0.130E+00  0.432E-01  0.432E-01  0.432E-01
   0.012  0.129E+00  0.428E-01  0.428E-01  0.428E-01
   0.022  0.128E+00  0.425E-01  0.425E-01  0.425E-01
   0.032  0.127E+00  0.422E-01  0.422E-01  0.422E-01
   0.042  0.126E+00  0.419E-01  0.419E-01  0.419E-01
   0.052  0.125E+00  0.415E-01  0.415E-01  0.415E-01
   0.062  0.124E+00  0.413E-01  0.413E-01  0.413E-01
   0.072  0.123E+00  0.410E-01  0.410E-01  0.410E-01
   0.082  0.122E+00  0.407E-01  0.407E-01  0.407E-01
   0.092  0.121E+00  0.404E-01  0.404E-01  0.404E-01
   0.102  0.120E+00  0.401E-01  0.401E-01  0.401E-01
   0.112  0.120E+00  0.399E-01  0.399E-01  0.399E-01
   0.122  0.119E+00  0.396E-01  0.396E-01  0.396E-01
   0.132  0.118E+00  0.394E-01  0.394E-01  0.394E-01
   0.142  0.117E+00  0.392E-01  0.392E-01  0.392E-01
   0.152  0.117E+00  0.389E-01  0.389E-01  0.389E-01
   0.162  0.116E+00  0.387E-01  0.387E-01  0.387E-01
   0.172  0.115E+00  0.385E-01  0.385E-01  0.385E-01
   0.182  0.115E+00  0.383E-01  0.383E-01  0.383E-01
   0.192  0.114E+00  0.381E-01  0.381E-01  0.381E-01
   0.202  0.114E+00  0.379E-01  0.379E-01  0.379E-01
   0.212  0.113E+00  0.377E-01  0.377E-01  0.377E-01
   0.222  0.112E+00  0.375E-01  0.375E-01  0.375E-01
   0.232  0.112E+00  0.373E-01  0.373E-01  0.373E-01
   0.242  0.111E+00  0.371E-01  0.371E-01  0.371E-01
   0.252  0.111E+00  0.369E-01  0.369E-01  0.369E-01
   0.262  0.110E+00  0.367E-01  0.367E-01  0.367E-01
   0.272  0.110E+00  0.366E-01  0.366E-01  0.366E-01
   0.282  0.109E+00  0.364E-01  0.364E-01  0.364E-01
   0.292  0.109E+00  0.362E-01  0.362E-01  0.362E-01
   0.302  0.108E+00  0.361E-01  0.361E-01  0.361E-01
   0.312  0.108E+00  0.359E-01  0.359E-01  0.359E-01
   0.322  0.107E+00  0.357E-01  0.357E-01  0.357E-01
   0.332  0.107E+00  0.356E-01  0.356E-01  0.356E-01
   0.342  0.106E+00  0.354E-01  0.354E-01  0.354E-01
   0.352  0.106E+00  0.353E-01  0.353E-01  0.353E-01
   0.362  0.105E+00  0.351E-01  0.351E-01  0.351E-01
   0.372  0.105E+00  0.350E-01  0.350E-01  0.350E-01
   0.382  0.105E+00  0.349E-01  0.349E-01  0.349E-01
   0.392  0.104E+00  0.347E-01  0.347E-01  0.347E-01
   0.402  0.104E+00  0.346E-01  0.346E-01  0.346E-01
   0.412  0.103E+00  0.345E-01  0.345E-01  0.345E-01
   0.422  0.103E+00  0.343E-01  0.343E-01  0.343E-01
   0.432  0.103E+00  0.342E-01  0.342E-01  0.342E-01
   0.442  0.102E+00  0.341E-01  0.341E-01  0.341E-01
   0.452  0.102E+00  0.340E-01  0.340E-01  0.340E-01
   0.462  0.102E+00  0.339E-01  0.339E-01  0.339E-01
   0.472  0.101E+00  0.337E-01  0.337E-01  0.337E-01
   0.482  0.101E+00  0.336E-01  0.336E-01  0.336E-01
   0.492  0.101E+00  0.335E-01  0.335E-01  0.335E-01
   0.502  0.100E+00  0.334E-01  0.334E-01  0.334E-01
   0.512  0.999E-01  0.333E-01  0.333E-01  0.333E-01
   0.522  0.995E-01  0.332E-01  0.332E-01  0.332E-01
   0.532  0.992E-01  0.331E-01  0.331E-01  0.331E-01
   0.542  0.989E-01  0.330E-01  0.330E-01  0.330E-01
   0.552  0.986E-01  0.329E-01  0.329E-01  0.329E-01
   0.562  0.983E-01  0.328E-01  0.328E-01  0.328E-01
   0.572  0.980E-01  0.327E-01  0.327E-01  0.327E-01
   0.582  0.977E-01  0.326E-01  0.326E-01  0.326E-01
   0.592  0.975E-01  0.325E-01  0.325E-01  0.325E-01
   0.602  0.972E-01  0.324E-01  0.324E-01  0.324E-01
   0.612  0.969E-01  0.323E-01  0.323E-01  0.323E-01
   0.622  0.966E-01  0.322E-01  0.322E-01  0.322E-01
   0.632  0.964E-01  0.321E-01  0.321E-01  0.321E-01
   0.642  0.961E-01  0.320E-01  0.320E-01  0.320E-01
   0.652  0.958E-01  0.319E-01  0.319E-01  0.319E-01
   0.662  0.955E-01  0.318E-01  0.318E-01  0.318E-01
   0.672  0.953E-01  0.318E-01  0.318E-01  0.318E-01
   0.682  0.950E-01  0.317E-01  0.317E-01  0.317E-01
   0.692  0.947E-01  0.316E-01  0.316E-01  0.316E-01
   0.702  0.945E-01  0.315E-01  0.315E-01  0.315E-01
   0.712  0.943E-01  0.314E-01  0.314E-01  0.314E-01
   0.722  0.941E-01  0.314E-01  0.314E-01  0.314E-01
   0.732  0.939E-01  0.313E-01  0.313E-01  0.313E-01
   0.742  0.936E-01  0.312E-01  0.312E-01  0.312E-01
   0.752  0.934E-01  0.311E-01  0.311E-01  0.311E-01
   0.762  0.932E-01  0.311E-01  0.311E-01  0.311E-01
   0.772  0.930E-01  0.310E-01  0.310E-01  0.310E-01
   0.782  0.928E-01  0.309E-01  0.309E-01  0.309E-01
   0.792  0.926E-01  0.309E-01  0.309E-01  0.309E-01
   0.802  0.923E-01  0.308E-01  0.308E-01  0.308E-01
   0.812  0.921E-01  0.307E-01  0.307E-01  0.307E-01
   0.822  0.918E-01  0.306E-01  0.306E-01  0.306E-01
   0.832  0.916E-01  0.305E-01  0.305E-01  0.305E-01
   0.842  0.914E-01  0.305E-01  0.305E-01  0.305E-01
   0.852  0.912E-01  0.304E-01  0.304E-01  0.304E-01
   0.862  0.910E-01  0.303E-01  0.303E-01  0.303E-01
   0.872  0.909E-01  0.303E-01  0.303E-01  0.303E-01
   0.882  0.907E-01  0.302E-01  0.302E-01  0.302E-01
   0.892  0.906E-01  0.302E-01  0.302E-01  0.302E-01
   0.902  0.904E-01  0.301E-01  0.301E-01  0.301E-01
   0.912  0.903E-01  0.301E-01  0.301E-01  0.301E-01
   0.922  0.901E-01  0.300E-01  0.300E-01  0.300E-01
   0.932  0.899E-01  0.300E-01  0.300E-01  0.300E-01
   0.942  0.897E-01  0.299E-01  0.299E-01  0.299E-01
   0.952  0.895E-01  0.298E-01  0.298E-01  0.298E-01
   0.962  0.893E-01  0.298E-01  0.298E-01  0.298E-01
   0.972  0.891E-01  0.297E-01  0.297E-01  0.297E-01
   0.982  0.889E-01  0.296E-01  0.296E-01  0.296E-01
   0.992  0.887E-01  0.296E-01  0.296E-01  0.296E-01
   1.002  0.885E-01  0.295E-01  0.295E-01  0.295E-01
   1.012  0.884E-01  0.295E-01  0.295E-01  0.295E-01
   1.022  0.882E-01  0.294E-01  0.294E-01  0.294E-01
   1.032  0.881E-01  0.294E-01  0.294E-01  0.294E-01
   1.042  0.880E-01  0.293E-01  0.293E-01  0.293E-01
   1.052  0.879E-01  0.293E-01  0.293E-01  0.293E-01
   1.062  0.878E-01  0.293E-01  0.293E-01  0.293E-01
   1.072  0.877E-01  0.292E-01  0.292E-01  0.292E-01
   1.082  0.875E-01  0.292E-01  0.292E-01  0.292E-01
   1.092  0.874E-01  0.291E-01  0.291E-01  0.291E-01
   1.102  0.872E-01  0.291E-01  0.291E-01  0.291E-01
   1.112  0.870E-01  0.290E-01  0.290E-01  0.290E-01
   1.122  0.868E-01  0.289E-01  0.289E-01  0.289E-01
   1.132  0.866E-01  0.289E-01  0.289E-01  0.289E-01
   1.142  0.864E-01  0.288E-01  0.288E-01  0.288E-01
   1.152  0.863E-01  0.288E-01  0.288E-01  0.288E-01
   1.162  0.861E-01  0.287E-01  0.287E-01  0.287E-01
   1.172  0.860E-01  0.287E-01  0.287E-01  0.287E-01
   1.182  0.859E-01  0.286E-01  0.286E-01  0.286E-01
   1.192  0.858E-01  0.286E-01  0.286E-01  0.286E-01
   1.202  0.858E-01  0.286E-01  0.286E-01  0.286E-01
   1.212  0.857E-01  0.286E-01  0.286E-01  0.286E-01
   1.222  0.856E-01  0.285E-01  0.285E-01  0.285E-01
   1.232  0.856E-01  0.285E-01  0.285E-01  0.285E-01
   1.242  0.854E-01  0.285E-01  0.285E-01  0.285E-01
   1.252  0.853E-01  0.284E-01  0.284E-01  0.284E-01
   1.262  0.852E-01  0.284E-01  0.284E-01  0.284E-01
   1.272  0.850E-01  0.283E-01  0.283E-01  0.283E-01
   1.282  0.848E-01  0.283E-01  0.283E-01  0.283E-01
   1.292  0.846E-01  0.282E-01  0.282E-01  0.282E-01
   1.302  0.844E-01  0.281E-01  0.281E-01  0.281E-01
   1.312  0.843E-01  0.281E-01  0.281E-01  0.281E-01
   1.322  0.841E-01  0.280E-01  0.280E-01  0.280E-01
   1.332  0.840E-01  0.280E-01  0.280E-01  0.280E-01
   1.342  0.840E-01  0.280E-01  0.280E-01  0.280E-01
   1.352  0.839E-01  0.280E-01  0.280E-01  0.280E-01
   1.362  0.839E-01  0.280E-01  0.280E-01  0.280E-01
   1.372  0.839E-01  0.280E-01  0.280E-01  0.280E-01
   1.382  0.838E-01  0.279E-01  0.279E-01  0.279E-01
   1.392  0.838E-01  0.279E-01  0.279E-01  0.279E-01
   1.402  0.837E-01  0.279E-01  0.279E-01  0.279E-01
   1.412  0.836E-01  0.279E-01  0.279E-01  0.279E-01
   1.422  0.835E-01  0.278E-01  0.278E-01  0.278E-01
   1.432  0.833E-01  0.278E-01  0.278E-01  0.278E-01
   1.442  0.832E-01  0.277E-01  0.277E-01  0.277E-01
   1.452  0.830E-01  0.277E-01  0.277E-01  0.277E-01
   1.462  0.828E-01  0.276E-01  0.276E-01  0.276E-01
   1.472  0.826E-01  0.275E-01  0.275E-01  0.275E-01
   1.482  0.825E-01  0.275E-01  0.275E-01  0.275E-01
   1.492  0.824E-01  0.275E-01  0.275E-01  0.275E-01
   1.502  0.823E-01  0.274E-01  0.274E-01  0.274E-01
   1.512  0.823E-01  0.274E-01  0.274E-01  0.274E-01
   1.522  0.822E-01  0.274E-01  0.274E-01  0.274E-01
   1.532  0.822E-01  0.274E-01  0.274E-01  0.274E-01
   1.542  0.823E-01  0.274E-01  0.274E-01  0.274E-01
   1.552  0.823E-01  0.274E-01  0.274E-01  0.274E-01
   1.562  0.823E-01  0.274E-01  0.274E-01  0.274E-01
   1.572  0.822E-01  0.274E-01  0.274E-01  0.274E-01
   1.582  0.821E-01  0.274E-01  0.274E-01  0.274E-01
   1.592  0.820E-01  0.273E-01  0.273E-01  0.273E-01
   1.602  0.818E-01  0.273E-01  0.273E-01  0.273E-01
   1.612  0.817E-01  0.272E-01  0.272E-01  0.272E-01
   1.622  0.815E-01  0.272E-01  0.272E-01  0.272E-01
   1.632  0.813E-01  0.271E-01  0.271E-01  0.271E-01
   1.642  0.811E-01  0.270E-01  0.270E-01  0.270E-01
   1.652  0.810E-01  0.270E-01  0.270E-01  0.270E-01
   1.662  0.809E-01  0.270E-01  0.270E-01  0.270E-01
   1.672  0.808E-01  0.269E-01  0.269E-01  0.269E-01
   1.682  0.808E-01  0.269E-01  0.269E-01  0.269E-01
   1.692  0.808E-01  0.269E-01  0.269E-01  0.269E-01
   1.702  0.809E-01  0.270E-01  0.270E-01  0.270E-01
   1.712  0.809E-01  0.270E-01  0.270E-01  0.270E-01
   1.722  0.810E-01  0.270E-01  0.270E-01  0.270E-01
   1.732  0.810E-01  0.270E-01  0.270E-01  0.270E-01
   1.742  0.810E-01  0.270E-01  0.270E-01  0.270E-01
   1.752  0.809E-01  0.270E-01  0.270E-01  0.270E-01
   1.762  0.808E-01  0.269E-01  0.269E-01  0.269E-01
   1.772  0.806E-01  0.269E-01  0.269E-01  0.269E-01
   1.782  0.805E-01  0.268E-01  0.268E-01  0.268E-01
   1.792  0.803E-01  0.268E-01  0.268E-01  0.268E-01
   1.802  0.801E-01  0.267E-01  0.267E-01  0.267E-01
   1.812  0.799E-01  0.266E-01  0.266E-01  0.266E-01
   1.822  0.797E-01  0.266E-01  0.266E-01  0.266E-01
   1.832  0.796E-01  0.265E-01  0.265E-01  0.265E-01
   1.842  0.796E-01  0.265E-01  0.265E-01  0.265E-01
   1.852  0.796E-01  0.265E-01  0.265E-01  0.265E-01
   1.862  0.796E-01  0.265E-01  0.265E-01  0.265E-01
   1.872  0.797E-01  0.266E-01  0.266E-01  0.266E-01
   1.882  0.798E-01  0.266E-01  0.266E-01  0.266E-01
   1.892  0.798E-01  0.266E-01  0.266E-01  0.266E-01
   1.902  0.799E-01  0.266E-01  0.266E-01  0.266E-01
   1.912  0.799E-01  0.266E-01  0.266E-01  0.266E-01
   1.922  0.799E-01  0.266E-01  0.266E-01  0.266E-01
   1.932  0.798E-01  0.266E-01  0.266E-01  0.266E-01
   1.942  0.797E-01  0.266E-01  0.266E-01  0.266E-01
   1.952  0.795E-01  0.265E-01  0.265E-01  0.265E-01
   1.962  0.793E-01  0.264E-01  0.264E-01  0.264E-01
   1.972  0.791E-01  0.264E-01  0.264E-01  0.264E-01
   1.982  0.789E-01  0.263E-01  0.263E-01  0.263E-01
   1.992  0.787E-01  0.262E-01  0.262E-01  0.262E-01
   2.002  0.786E-01  0.262E-01  0.262E-01  0.262E-01
   2.012  0.785E-01  0.262E-01  0.262E-01  0.262E-01
   2.022  0.785E-01  0.262E-01  0.262E-01  0.262E-01
   2.032  0.785E-01  0.262E-01  0.262E-01  0.262E-01
   2.042  0.786E-01  0.262E-01  0.262E-01  0.262E-01
   2.052  0.787E-01  0.262E-01  0.262E-01  0.262E-01
   2.062  0.788E-01  0.263E-01  0.263E-01  0.263E-01
   2.072  0.790E-01  0.263E-01  0.263E-01  0.263E-01
   2.082  0.790E-01  0.263E-01  0.263E-01  0.263E-01
   2.092  0.791E-01  0.264E-01  0.264E-01  0.264E-01
   2.102  0.791E-01  0.264E-01  0.264E-01  0.264E-01
   2.112  0.790E-01  0.263E-01  0.263E-01  0.263E-01
   2.122  0.788E-01  0.263E-01  0.263E-01  0.263E-01
   2.132  0.786E-01  0.262E-01  0.262E-01  0.262E-01
   2.142  0.784E-01  0.261E-01  0.261E-01  0.261E-01
   2.152  0.782E-01  0.261E-01  0.261E-01  0.261E-01
   2.162  0.780E-01  0.260E-01  0.260E-01  0.260E-01
   2.172  0.778E-01  0.259E-01  0.259E-01  0.259E-01
   2.182  0.777E-01  0.259E-01  0.259E-01  0.259E-01
   2.192  0.776E-01  0.259E-01  0.259E-01  0.259E-01
   2.202  0.776E-01  0.259E-01  0.259E-01  0.259E-01
   2.212  0.777E-01  0.259E-01  0.259E-01  0.259E-01
   2.222  0.778E-01  0.259E-01  0.259E-01  0.259E-01
   2.232  0.779E-01  0.260E-01  0.260E-01  0.260E-01
   2.242  0.781E-01  0.260E-01  0.260E-01  0.260E-01
   2.252  0.782E-01  0.261E-01  0.261E-01  0.261E-01
   2.262  0.784E-01  0.261E-01  0.261E-01  0.261E-01
   2.272  0.784E-01  0.261E-01  0.261E-01  0.261E-01
   2.282  0.784E-01  0.261E-01  0.261E-01  0.261E-01
   2.292  0.783E-01  0.261E-01  0.261E-01  0.261E-01
   2.302  0.782E-01  0.261E-01  0.261E-01  0.261E-01
   2.312  0.780E-01  0.260E-01  0.260E-01  0.260E-01
   2.322  0.777E-01  0.259E-01  0.259E-01  0.259E-01
   2.332  0.775E-01  0.258E-01  0.258E-01  0.258E-01
   2.342  0.773E-01  0.258E-01  0.258E-01  0.258E-01
   2.352  0.771E-01  0.257E-01  0.257E-01  0.257E-01
   2.362  0.769E-01  0.256E-01  0.256E-01  0.256E-01
   2.372  0.769E-01  0.256E-01  0.256E-01  0.256E-01
   2.382  0.769E-01  0.256E-01  0.256E-01  0.256E-01
   2.392  0.770E-01  0.257E-01  0.257E-01  0.257E-01
   2.402  0.771E-01  0.257E-01  0.257E-01  0.257E-01
   2.412  0.773E-01  0.258E-01  0.258E-01  0.258E-01
   2.422  0.775E-01  0.258E-01  0.258E-01  0.258E-01
   2.432  0.777E-01  0.259E-01  0.259E-01  0.259E-01
   2.442  0.778E-01  0.259E-01  0.259E-01  0.259E-01
   2.452  0.779E-01  0.260E-01  0.260E-01  0.260E-01
   2.462  0.779E-01  0.260E-01  0.260E-01  0.260E-01
   2.472  0.778E-01  0.259E-01  0.259E-01  0.259E-01
   2.482  0.777E-01  0.259E-01  0.259E-01  0.259E-01
   2.492  0.775E-01  0.258E-01  0.258E-01  0.258E-01
   2.502  0.773E-01  0.258E-01  0.258E-01  0.258E-01
   2.512  0.770E-01  0.257E-01  0.257E-01  0.257E-01
   2.522  0.768E-01  0.256E-01  0.256E-01  0.256E-01
   2.532  0.765E-01  0.255E-01  0.255E-01  0.255E-01
   2.542  0.764E-01  0.255E-01  0.255E-01  0.255E-01
   2.552  0.763E-01  0.254E-01  0.254E-01  0.254E-01
   2.562  0.763E-01  0.254E-01  0.254E-01  0.254E-01
   2.572  0.764E-01  0.255E-01  0.255E-01  0.255E-01
   2.582  0.765E-01  0.255E-01  0.255E-01  0.255E-01
   2.592  0.767E-01  0.256E-01  0.256E-01  0.256E-01
   2.602  0.769E-01  0.256E-01  0.256E-01  0.256E-01
   2.612  0.772E-01  0.257E-01  0.257E-01  0.257E-01
   2.622  0.773E-01  0.258E-01  0.258E-01  0.258E-01
   2.632  0.775E-01  0.258E-01  0.258E-01  0.258E-01
   2.642  0.776E-01  0.259E-01  0.259E-01  0.259E-01
   2.652  0.775E-01  0.258E-01  0.258E-01  0.258E-01
   2.662  0.774E-01  0.258E-01  0.258E-01  0.258E-01
   2.672  0.773E-01  0.258E-01  0.258E-01  0.258E-01
   2.682  0.770E-01  0.257E-01  0.257E-01  0.257E-01
   2.692  0.768E-01  0.256E-01  0.256E-01  0.256E-01
   2.702  0.765E-01  0.255E-01  0.255E-01  0.255E-01
   2.712  0.762E-01  0.254E-01  0.254E-01  0.254E-01
   2.722  0.760E-01  0.253E-01  0.253E-01  0.253E-01
   2.732  0.759E-01  0.253E-01  0.253E-01  0.253E-01
   2.742  0.758E-01  0.253E-01  0.253E-01  0.253E-01
   2.752  0.759E-01  0.253E-01  0.253E-01  0.253E-01
   2.762  0.760E-01  0.253E-01  0.253E-01  0.253E-01
   2.772  0.762E-01  0.254E-01  0.254E-01  0.254E-01
   2.782  0.765E-01  0.255E-01  0.255E-01  0.255E-01
   2.792  0.767E-01  0.256E-01  0.256E-01  0.256E-01
   2.802  0.770E-01  0.257E-01  0.257E-01  0.257E-01
   2.812  0.772E-01  0.257E-01  0.257E-01  0.257E-01
   2.822  0.773E-01  0.258E-01  0.258E-01  0.258E-01
   2.832  0.774E-01  0.258E-01  0.258E-01  0.258E-01
   2.842  0.773E-01  0.258E-01  0.258E-01  0.258E-01
   2.852  0.772E-01  0.257E-01  0.257E-01  0.257E-01
   2.862  0.770E-01  0.257E-01  0.257E-01  0.257E-01
   2.872  0.767E-01  0.256E-01  0.256E-01  0.256E-01
   2.882  0.764E-01  0.255E-01  0.255E-01  0.255E-01
   2.892  0.761E-01  0.254E-01  0.254E-01  0.254E-01
   2.902  0.759E-01  0.253E-01  0.253E-01  0.253E-01
   2.912  0.757E-01  0.252E-01  0.252E-01  0.252E-01
   2.922  0.756E-01  0.252E-01  0.252E-01  0.252E-01
   2.932  0.756E-01  0.252E-01  0.252E-01  0.252E-01
   2.942  0.756E-01  0.252E-01  0.252E-01  0.252E-01
   2.952  0.758E-01  0.253E-01  0.253E-01  0.253E-01
   2.962  0.760E-01  0.253E-01  0.253E-01  0.253E-01
   2.972  0.763E-01  0.254E-01  0.254E-01  0.254E-01
   2.982  0.766E-01  0.255E-01  0.255E-01  0.255E-01
   2.992  0.769E-01  0.256E-01  0.256E-01  0.256E-01
   3.002  0.771E-01  0.257E-01  0.257E-01  0.257E-01
   3.012  0.773E-01  0.258E-01  0.258E-01  0.258E-01
   3.022  0.773E-01  0.258E-01  0.258E-01  0.258E-01
   3.032  0.773E-01  0.258E-01  0.258E-01  0.258E-01
   3.042  0.771E-01  0.257E-01  0.257E-01  0.257E-01
   3.052  0.769E-01  0.256E-01  0.256E-01  0.256E-01
   3.062  0.766E-01  0.255E-01  0.255E-01  0.255E-01
   3.072  0.763E-01  0.254E-01  0.254E-01  0.254E-01
   3.082  0.760E-01  0.253E-01  0.253E-01  0.253E-01
   3.092  0.757E-01  0.252E-01  0.252E-01  0.252E-01
   3.102  0.755E-01  0.252E-01  0.252E-01  0.252E-01
   3.112  0.754E-01  0.251E-01  0.251E-01  0.251E-01
   3.122  0.754E-01  0.251E-01  0.251E-01  0.251E-01
   3.132  0.755E-01  0.252E-01  0.252E-01  0.252E-01
   3.142  0.757E-01  0.252E-01  0.252E-01  0.252E-01
   3.152  0.760E-01  0.253E-01  0.253E-01  0.253E-01
   3.162  0.763E-01  0.254E-01  0.254E-01  0.254E-01
   3.172  0.766E-01  0.255E-01  0.255E-01  0.255E-01
   3.182  0.769E-01  0.256E-01  0.256E-01  0.256E-01
   3.192  0.772E-01  0.257E-01  0.257E-01  0.257E-01
   3.202  0.773E-01  0.258E-01  0.258E-01  0.258E-01
   3.212  0.774E-01  0.258E-01  0.258E-01  0.258E-01
   3.222  0.773E-01  0.258E-01  0.258E-01  0.258E-01
   3.232  0.772E-01  0.257E-01  0.257E-01  0.257E-01
   3.242  0.770E-01  0.257E-01  0.257E-01  0.257E-01
   3.252  0.767E-01  0.256E-01  0.256E-01  0.256E-01
   3.262  0.763E-01  0.254E-01  0.254E-01  0.254E-01
   3.272  0.760E-01  0.253E-01  0.253E-01  0.253E-01
   3.282  0.757E-01  0.252E-01  0.252E-01  0.252E-01
   3.292  0.755E-01  0.252E-01  0.252E-01  0.252E-01
   3.302  0.754E-01  0.251E-01  0.251E-01  0.251E-01
   3.312  0.754E-01  0.251E-01  0.251E-01  0.251E-01
   3.322  0.755E-01  0.252E-01  0.252E-01  0.252E-01
   3.332  0.757E-01  0.252E-01  0.252E-01  0.252E-01
   3.342  0.760E-01  0.253E-01  0.253E-01  0.253E-01
   3.352  0.764E-01  0.255E-01  0.255E-01  0.255E-01
   3.362  0.767E-01  0.256E-01  0.256E-01  0.256E-01
   3.372  0.771E-01  0.257E-01  0.257E-01  0.257E-01
   3.382  0.773E-01  0.258E-01  0.258E-01  0.258E-01
   3.392  0.775E-01  0.258E-01  0.258E-01  0.258E-01
   3.402  0.776E-01  0.259E-01  0.259E-01  0.259E-01
   3.412  0.776E-01  0.259E-01  0.259E-01  0.259E-01
   3.422  0.775E-01  0.258E-01  0.258E-01  0.258E-01
   3.432  0.772E-01  0.257E-01  0.257E-01  0.257E-01
   3.442  0.769E-01  0.256E-01  0.256E-01  0.256E-01
   3.452  0.766E-01  0.255E-01  0.255E-01  0.255E-01
   3.462  0.763E-01  0.254E-01  0.254E-01  0.254E-01
   3.472  0.760E-01  0.253E-01  0.253E-01  0.253E-01
   3.482  0.757E-01  0.252E-01  0.252E-01  0.252E-01
   3.492  0.756E-01  0.252E-01  0.252E-01  0.252E-01
   3.502  0.756E-01  0.252E-01  0.252E-01  0.252E-01
   3.512  0.757E-01  0.252E-01  0.252E-01  0.252E-01
   3.522  0.759E-01  0.253E-01  0.253E-01  0.253E-01
   3.532  0.762E-01  0.254E-01  0.254E-01  0.254E-01
   3.542  0.765E-01  0.255E-01  0.255E-01  0.255E-01
   3.552  0.769E-01  0.256E-01  0.256E-01  0.256E-01
   3.562  0.773E-01  0.258E-01  0.258E-01  0.258E-01
   3.572  0.776E-01  0.259E-01  0.259E-01  0.259E-01
   3.582  0.778E-01  0.259E-01  0.259E-01  0.259E-01
   3.592  0.780E-01  0.260E-01  0.260E-01  0.260E-01
   3.602  0.780E-01  0.260E-01  0.260E-01  0.260E-01
   3.612  0.779E-01  0.260E-01  0.260E-01  0.260E-01
   3.622  0.777E-01  0.259E-01  0.259E-01  0.259E-01
   3.632  0.774E-01  0.258E-01  0.258E-01  0.258E-01
   3.642  0.770E-01  0.257E-01  0.257E-01  0.257E-01
   3.652  0.767E-01  0.256E-01  0.256E-01  0.256E-01
   3.662  0.764E-01  0.255E-01  0.255E-01  0.255E-01
   3.672  0.761E-01  0.254E-01  0.254E-01  0.254E-01
   3.682  0.759E-01  0.253E-01  0.253E-01  0.253E-01
   3.692  0.759E-01  0.253E-01  0.253E-01  0.253E-01
   3.702  0.760E-01  0.253E-01  0.253E-01  0.253E-01
   3.712  0.762E-01  0.254E-01  0.254E-01  0.254E-01
   3.722  0.764E-01  0.255E-01  0.255E-01  0.255E-01
   3.732  0.768E-01  0.256E-01  0.256E-01  0.256E-01
   3.742  0.772E-01  0.257E-01  0.257E-01  0.257E-01
   3.752  0.776E-01  0.259E-01  0.259E-01  0.259E-01
   3.762  0.780E-01  0.260E-01  0.260E-01  0.260E-01
   3.772  0.783E-01  0.261E-01  0.261E-01  0.261E-01
   3.782  0.785E-01  0.262E-01  0.262E-01  0.262E-01
   3.792  0.785E-01  0.262E-01  0.262E-01  0.262E-01
   3.802  0.785E-01  0.262E-01  0.262E-01  0.262E-01
   3.812  0.783E-01  0.261E-01  0.261E-01  0.261E-01
   3.822  0.780E-01  0.260E-01  0.260E-01  0.260E-01
   3.832  0.777E-01  0.259E-01  0.259E-01  0.259E-01
   3.842  0.773E-01  0.258E-01  0.258E-01  0.258E-01
   3.852  0.770E-01  0.257E-01  0.257E-01  0.257E-01
   3.862  0.767E-01  0.256E-01  0.256E-01  0.256E-01
   3.872  0.765E-01  0.255E-01  0.255E-01  0.255E-01
   3.882  0.764E-01  0.255E-01  0.255E-01  0.255E-01
   3.892  0.764E-01  0.255E-01  0.255E-01  0.255E-01
   3.902  0.766E-01  0.255E-01  0.255E-01  0.255E-01
   3.912  0.769E-01  0.256E-01  0.256E-01  0.256E-01
   3.922  0.772E-01  0.257E-01  0.257E-01  0.257E-01
   3.932  0.776E-01  0.259E-01  0.259E-01  0.259E-01
   3.942  0.781E-01  0.260E-01  0.260E-01  0.260E-01
   3.952  0.785E-01  0.262E-01  0.262E-01  0.262E-01
   3.962  0.788E-01  0.263E-01  0.263E-01  0.263E-01
   3.972  0.791E-01  0.264E-01  0.264E-01  0.264E-01
   3.982  0.792E-01  0.264E-01  0.264E-01  0.264E-01
   3.992  0.792E-01  0.264E-01  0.264E-01  0.264E-01
   4.002  0.791E-01  0.264E-01  0.264E-01  0.264E-01
   4.012  0.788E-01  0.263E-01  0.263E-01  0.263E-01
   4.022  0.785E-01  0.262E-01  0.262E-01  0.262E-01
   4.032  0.782E-01  0.261E-01  0.261E-01  0.261E-01
   4.042  0.778E-01  0.259E-01  0.259E-01  0.259E-01
   4.052  0.775E-01  0.258E-01  0.258E-01  0.258E-01
   4.062  0.773E-01  0.258E-01  0.258E-01  0.258E-01
   4.072  0.771E-01  0.257E-01  0.257E-01  0.257E-01
   4.082  0.771E-01  0.257E-01  0.257E-01  0.257E-01
   4.092  0.772E-01  0.257E-01  0.257E-01  0.257E-01
   4.102  0.775E-01  0.258E-01  0.258E-01  0.258E-01
   4.112  0.778E-01  0.259E-01  0.259E-01  0.259E-01
   4.122  0.782E-01  0.261E-01  0.261E-01  0.261E-01
   4.132  0.787E-01  0.262E-01  0.262E-01  0.262E-01
   4.142  0.791E-01  0.264E-01  0.264E-01  0.264E-01
   4.152  0.795E-01  0.265E-01  0.265E-01  0.265E-01
   4.162  0.798E-01  0.266E-01  0.266E-01  0.266E-01
   4.172  0.800E-01  0.267E-01  0.267E-01  0.267E-01
   4.182  0.801E-01  0.267E-01  0.267E-01  0.267E-01
   4.192  0.800E-01  0.267E-01  0.267E-01  0.267E-01
   4.202  0.799E-01  0.266E-01  0.266E-01  0.266E-01
   4.212  0.796E-01  0.265E-01  0.265E-01  0.265E-01
   4.222  0.793E-01  0.264E-01  0.264E-01  0.264E-01
   4.232  0.789E-01  0.263E-01  0.263E-01  0.263E-01
   4.242  0.786E-01  0.262E-01  0.262E-01  0.262E-01
   4.252  0.783E-01  0.261E-01  0.261E-01  0.261E-01
   4.262  0.781E-01  0.260E-01  0.260E-01  0.260E-01
   4.272  0.780E-01  0.260E-01  0.260E-01  0.260E-01
   4.282  0.781E-01  0.260E-01  0.260E-01  0.260E-01
   4.292  0.783E-01  0.261E-01  0.261E-01  0.261E-01
   4.302  0.786E-01  0.262E-01  0.262E-01  0.262E-01
   4.312  0.790E-01  0.263E-01  0.263E-01  0.263E-01
   4.322  0.795E-01  0.265E-01  0.265E-01  0.265E-01
   4.332  0.799E-01  0.266E-01  0.266E-01  0.266E-01
   4.342  0.804E-01  0.268E-01  0.268E-01  0.268E-01
   4.352  0.807E-01  0.269E-01  0.269E-01  0.269E-01
   4.362  0.810E-01  0.270E-01  0.270E-01  0.270E-01
   4.372  0.811E-01  0.270E-01  0.270E-01  0.270E-01
   4.382  0.812E-01  0.271E-01  0.271E-01  0.271E-01
   4.392  0.810E-01  0.270E-01  0.270E-01  0.270E-01
   4.402  0.808E-01  0.269E-01  0.269E-01  0.269E-01
   4.412  0.805E-01  0.268E-01  0.268E-01  0.268E-01
   4.422  0.802E-01  0.267E-01  0.267E-01  0.267E-01
   4.432  0.799E-01  0.266E-01  0.266E-01  0.266E-01
   4.442  0.796E-01  0.265E-01  0.265E-01  0.265E-01
   4.452  0.794E-01  0.265E-01  0.265E-01  0.265E-01
   4.462  0.793E-01  0.264E-01  0.264E-01  0.264E-01
   4.472  0.793E-01  0.264E-01  0.264E-01  0.264E-01
   4.482  0.794E-01  0.265E-01  0.265E-01  0.265E-01
   4.492  0.797E-01  0.266E-01  0.266E-01  0.266E-01
   4.502  0.801E-01  0.267E-01  0.267E-01  0.267E-01
   4.512  0.805E-01  0.268E-01  0.268E-01  0.268E-01
   4.522  0.810E-01  0.270E-01  0.270E-01  0.270E-01
   4.532  0.815E-01  0.272E-01  0.272E-01  0.272E-01
   4.542  0.819E-01  0.273E-01  0.273E-01  0.273E-01
   4.552  0.822E-01  0.274E-01  0.274E-01  0.274E-01
   4.562  0.824E-01  0.275E-01  0.275E-01  0.275E-01
   4.572  0.825E-01  0.275E-01  0.275E-01  0.275E-01
   4.582  0.825E-01  0.275E-01  0.275E-01  0.275E-01
   4.592  0.823E-01  0.274E-01  0.274E-01  0.274E-01
   4.602  0.821E-01  0.274E-01  0.274E-01  0.274E-01
   4.612  0.818E-01  0.273E-01  0.273E-01  0.273E-01
   4.622  0.814E-01  0.271E-01  0.271E-01  0.271E-01
   4.632  0.812E-01  0.271E-01  0.271E-01  0.271E-01
   4.642  0.809E-01  0.270E-01  0.270E-01  0.270E-01
   4.652  0.808E-01  0.269E-01  0.269E-01  0.269E-01
   4.662  0.808E-01  0.269E-01  0.269E-01  0.269E-01
   4.672  0.809E-01  0.270E-01  0.270E-01  0.270E-01
   4.682  0.811E-01  0.270E-01  0.270E-01  0.270E-01
   4.692  0.815E-01  0.272E-01  0.272E-01  0.272E-01
   4.702  0.819E-01  0.273E-01  0.273E-01  0.273E-01
   4.712  0.824E-01  0.275E-01  0.275E-01  0.275E-01
   4.722  0.829E-01  0.276E-01  0.276E-01  0.276E-01
   4.732  0.833E-01  0.278E-01  0.278E-01  0.278E-01
   4.742  0.837E-01  0.279E-01  0.279E-01  0.279E-01
   4.752  0.840E-01  0.280E-01  0.280E-01  0.280E-01
   4.762  0.841E-01  0.280E-01  0.280E-01  0.280E-01
   4.772  0.841E-01  0.280E-01  0.280E-01  0.280E-01
   4.782  0.840E-01  0.280E-01  0.280E-01  0.280E-01
   4.792  0.838E-01  0.279E-01  0.279E-01  0.279E-01
   4.802  0.836E-01  0.279E-01  0.279E-01  0.279E-01
   4.812  0.833E-01  0.278E-01  0.278E-01  0.278E-01
   4.822  0.831E-01  0.277E-01  0.277E-01  0.277E-01
   4.832  0.828E-01  0.276E-01  0.276E-01  0.276E-01
   4.842  0.827E-01  0.276E-01  0.276E-01  0.276E-01
   4.852  0.827E-01  0.276E-01  0.276E-01  0.276E-01
   4.862  0.828E-01  0.276E-01  0.276E-01  0.276E-01
   4.872  0.831E-01  0.277E-01  0.277E-01  0.277E-01
   4.882  0.834E-01  0.278E-01  0.278E-01  0.278E-01
   4.892  0.839E-01  0.280E-01  0.280E-01  0.280E-01
   4.902  0.844E-01  0.281E-01  0.281E-01  0.281E-01
   4.912  0.850E-01  0.283E-01  0.283E-01  0.283E-01
   4.922  0.855E-01  0.285E-01  0.285E-01  0.285E-01
   4.932  0.861E-01  0.287E-01  0.287E-01  0.287E-01
   4.942  0.867E-01  0.289E-01  0.289E-01  0.289E-01
   4.952  0.873E-01  0.291E-01  0.291E-01  0.291E-01
   4.962  0.879E-01  0.293E-01  0.293E-01  0.293E-01
   4.972  0.887E-01  0.296E-01  0.296E-01  0.296E-01
   4.982  0.897E-01  0.299E-01  0.299E-01  0.299E-01
   4.992  0.911E-01  0.304E-01  0.304E-01  0.304E-01
   5.002  0.930E-01  0.310E-01  0.310E-01  0.310E-01
   5.012  0.957E-01  0.319E-01  0.319E-01  0.319E-01
   5.022  0.995E-01  0.332E-01  0.332E-01  0.332E-01
   5.032  0.105E+00  0.349E-01  0.349E-01  0.349E-01
   5.042  0.112E+00  0.372E-01  0.372E-01  0.372E-01
   5.052  0.121E+00  0.402E-01  0.402E-01  0.402E-01
   5.062  0.132E+00  0.442E-01  0.442E-01  0.442E-01
   5.072  0.147E+00  0.492E-01  0.492E-01  0.492E-01
   5.082  0.166E+00  0.554E-01  0.554E-01  0.554E-01
   5.092  0.190E+00  0.632E-01  0.632E-01  0.632E-01
   5.102  0.218E+00  0.726E-01  0.726E-01  0.726E-01
   5.112  0.252E+00  0.841E-01  0.841E-01  0.841E-01
   5.122  0.293E+00  0.977E-01  0.977E-01  0.977E-01
   5.132  0.341E+00  0.114E+00  0.114E+00  0.114E+00
   5.142  0.398E+00  0.133E+00  0.133E+00  0.133E+00
   5.152  0.463E+00  0.154E+00  0.154E+00  0.154E+00
   5.162  0.536E+00  0.179E+00  0.179E+00  0.179E+00
   5.172  0.619E+00  0.206E+00  0.206E+00  0.206E+00
   5.182  0.712E+00  0.237E+00  0.237E+00  0.237E+00
   5.192  0.813E+00  0.271E+00  0.271E+00  0.271E+00
   5.202  0.923E+00  0.308E+00  0.308E+00  0.308E+00
   5.212  0.104E+01  0.347E+00  0.347E+00  0.347E+00
   5.222  0.116E+01  0.388E+00  0.388E+00  0.388E+00
   5.232  0.129E+01  0.431E+00  0.431E+00  0.431E+00
   5.242  0.143E+01  0.475E+00  0.475E+00  0.475E+00
   5.252  0.156E+01  0.520E+00  0.520E+00  0.520E+00
   5.262  0.169E+01  0.564E+00  0.564E+00  0.564E+00
   5.272  0.182E+01  0.607E+00  0.607E+00  0.607E+00
   5.282  0.194E+01  0.648E+00  0.648E+00  0.648E+00
   5.292  0.206E+01  0.687E+00  0.687E+00  0.687E+00
   5.302  0.217E+01  0.722E+00  0.722E+00  0.722E+00
   5.312  0.226E+01  0.754E+00  0.754E+00  0.754E+00
   5.322  0.234E+01  0.781E+00  0.781E+00  0.781E+00
   5.332  0.241E+01  0.803E+00  0.803E+00  0.803E+00
   5.342  0.246E+01  0.821E+00  0.821E+00  0.821E+00
   5.352  0.250E+01  0.833E+00  0.833E+00  0.833E+00
   5.362  0.252E+01  0.841E+00  0.841E+00  0.841E+00
   5.372  0.253E+01  0.843E+00  0.843E+00  0.843E+00
   5.382  0.252E+01  0.842E+00  0.842E+00  0.842E+00
   5.392  0.251E+01  0.836E+00  0.836E+00  0.836E+00
   5.402  0.248E+01  0.826E+00  0.826E+00  0.826E+00
   5.412  0.244E+01  0.813E+00  0.813E+00  0.813E+00
   5.422  0.239E+01  0.798E+00  0.798E+00  0.798E+00
   5.432  0.234E+01  0.781E+00  0.781E+00  0.781E+00
   5.442  0.229E+01  0.762E+00  0.762E+00  0.762E+00
   5.452  0.223E+01  0.742E+00  0.742E+00  0.742E+00
   5.462  0.217E+01  0.722E+00  0.722E+00  0.722E+00
   5.472  0.210E+01  0.701E+00  0.701E+00  0.701E+00
   5.482  0.204E+01  0.681E+00  0.681E+00  0.681E+00
   5.492  0.198E+01  0.661E+00  0.661E+00  0.661E+00
   5.502  0.193E+01  0.642E+00  0.642E+00  0.642E+00
   5.512  0.187E+01  0.624E+00  0.624E+00  0.624E+00
   5.522  0.182E+01  0.606E+00  0.606E+00  0.606E+00
   5.532  0.177E+01  0.590E+00  0.590E+00  0.590E+00
   5.542  0.172E+01  0.574E+00  0.574E+00  0.574E+00
   5.552  0.168E+01  0.560E+00  0.560E+00  0.560E+00
   5.562  0.164E+01  0.547E+00  0.547E+00  0.547E+00
   5.572  0.160E+01  0.534E+00  0.534E+00  0.534E+00
   5.582  0.157E+01  0.523E+00  0.523E+00  0.523E+00
   5.592  0.154E+01  0.512E+00  0.512E+00  0.512E+00
   5.602  0.151E+01  0.502E+00  0.502E+00  0.502E+00
   5.612  0.148E+01  0.493E+00  0.493E+00  0.493E+00
   5.622  0.145E+01  0.485E+00  0.485E+00  0.485E+00
   5.632  0.143E+01  0.477E+00  0.477E+00  0.477E+00
   5.642  0.141E+01  0.470E+00  0.470E+00  0.470E+00
   5.652  0.139E+01  0.463E+00  0.463E+00  0.463E+00
   5.662  0.137E+01  0.457E+00  0.457E+00  0.457E+00
   5.672  0.135E+01  0.451E+00  0.451E+00  0.451E+00
   5.682  0.133E+01  0.445E+00  0.445E+00  0.445E+00
   5.692  0.132E+01  0.440E+00  0.440E+00  0.440E+00
   5.702  0.130E+01  0.435E+00  0.435E+00  0.435E+00
   5.712  0.129E+01  0.430E+00  0.430E+00  0.430E+00
   5.722  0.128E+01  0.425E+00  0.425E+00  0.425E+00
   5.732  0.126E+01  0.421E+00  0.421E+00  0.421E+00
   5.742  0.125E+01  0.417E+00  0.417E+00  0.417E+00
   5.752  0.124E+01  0.413E+00  0.413E+00  0.413E+00
   5.762  0.123E+01  0.410E+00  0.410E+00  0.410E+00
   5.772  0.122E+01  0.406E+00  0.406E+00  0.406E+00
   5.782  0.121E+01  0.403E+00  0.403E+00  0.403E+00
   5.792  0.120E+01  0.400E+00  0.400E+00  0.400E+00
   5.802  0.119E+01  0.397E+00  0.397E+00  0.397E+00
   5.812  0.118E+01  0.394E+00  0.394E+00  0.394E+00
   5.822  0.117E+01  0.391E+00  0.391E+00  0.391E+00
   5.832  0.117E+01  0.389E+00  0.389E+00  0.389E+00
   5.842  0.116E+01  0.387E+00  0.387E+00  0.387E+00
   5.852  0.115E+01  0.384E+00  0.384E+00  0.384E+00
   5.862  0.115E+01  0.382E+00  0.382E+00  0.382E+00
   5.872  0.114E+01  0.380E+00  0.380E+00  0.380E+00
   5.882  0.113E+01  0.378E+00  0.378E+00  0.378E+00
   5.892  0.113E+01  0.376E+00  0.376E+00  0.376E+00
   5.902  0.112E+01  0.375E+00  0.375E+00  0.375E+00
   5.912  0.112E+01  0.373E+00  0.373E+00  0.373E+00
   5.922  0.111E+01  0.372E+00  0.372E+00  0.372E+00
   5.932  0.111E+01  0.370E+00  0.370E+00  0.370E+00
   5.942  0.111E+01  0.369E+00  0.369E+00  0.369E+00
   5.952  0.110E+01  0.368E+00  0.368E+00  0.368E+00
   5.962  0.110E+01  0.367E+00  0.367E+00  0.367E+00
   5.972  0.110E+01  0.366E+00  0.366E+00  0.366E+00
   5.982  0.109E+01  0.365E+00  0.365E+00  0.365E+00
   5.992  0.109E+01  0.364E+00  0.364E+00  0.364E+00
   6.002  0.109E+01  0.364E+00  0.364E+00  0.364E+00
   6.012  0.109E+01  0.363E+00  0.363E+00  0.363E+00
   6.022  0.109E+01  0.363E+00  0.363E+00  0.363E+00
   6.032  0.109E+01  0.362E+00  0.362E+00  0.362E+00
   6.042  0.109E+01  0.362E+00  0.362E+00  0.362E+00
   6.052  0.109E+01  0.362E+00  0.362E+00  0.362E+00
   6.062  0.109E+01  0.362E+00  0.362E+00  0.362E+00
   6.072  0.109E+01  0.362E+00  0.362E+00  0.362E+00
   6.082  0.109E+01  0.362E+00  0.362E+00  0.362E+00
   6.092  0.109E+01  0.363E+00  0.363E+00  0.363E+00
   6.102  0.109E+01  0.363E+00  0.363E+00  0.363E+00
   6.112  0.109E+01  0.364E+00  0.364E+00  0.364E+00
   6.122  0.109E+01  0.365E+00  0.365E+00  0.365E+00
   6.132  0.110E+01  0.366E+00  0.366E+00  0.366E+00
   6.142  0.110E+01  0.367E+00  0.367E+00  0.367E+00
   6.152  0.110E+01  0.368E+00  0.368E+00  0.368E+00
   6.162  0.111E+01  0.370E+00  0.370E+00  0.370E+00
   6.172  0.111E+01  0.372E+00  0.372E+00  0.372E+00
   6.182  0.112E+01  0.374E+00  0.374E+00  0.374E+00
   6.192  0.113E+01  0.376E+00  0.376E+00  0.376E+00
   6.202  0.114E+01  0.379E+00  0.379E+00  0.379E+00
   6.212  0.114E+01  0.381E+00  0.381E+00  0.381E+00
   6.222  0.115E+01  0.385E+00  0.385E+00  0.385E+00
   6.232  0.117E+01  0.388E+00  0.388E+00  0.388E+00
   6.242  0.118E+01  0.393E+00  0.393E+00  0.393E+00
   6.252  0.119E+01  0.397E+00  0.397E+00  0.397E+00
   6.262  0.121E+01  0.402E+00  0.402E+00  0.402E+00
   6.272  0.122E+01  0.408E+00  0.408E+00  0.408E+00
   6.282  0.124E+01  0.414E+00  0.414E+00  0.414E+00
   6.292  0.126E+01  0.421E+00  0.421E+00  0.421E+00
   6.302  0.129E+01  0.429E+00  0.429E+00  0.429E+00
   6.312  0.131E+01  0.437E+00  0.437E+00  0.437E+00
   6.322  0.134E+01  0.446E+00  0.446E+00  0.446E+00
   6.332  0.137E+01  0.456E+00  0.456E+00  0.456E+00
   6.342  0.140E+01  0.466E+00  0.466E+00  0.466E+00
   6.352  0.143E+01  0.477E+00  0.477E+00  0.477E+00
   6.362  0.147E+01  0.488E+00  0.488E+00  0.488E+00
   6.372  0.150E+01  0.500E+00  0.500E+00  0.500E+00
   6.382  0.153E+01  0.511E+00  0.511E+00  0.511E+00
   6.392  0.157E+01  0.522E+00  0.522E+00  0.522E+00
   6.402  0.160E+01  0.533E+00  0.533E+00  0.533E+00
   6.412  0.163E+01  0.543E+00  0.543E+00  0.543E+00
   6.422  0.165E+01  0.551E+00  0.551E+00  0.551E+00
   6.432  0.168E+01  0.559E+00  0.559E+00  0.559E+00
   6.442  0.169E+01  0.564E+00  0.564E+00  0.564E+00
   6.452  0.170E+01  0.567E+00  0.567E+00  0.567E+00
   6.462  0.170E+01  0.567E+00  0.567E+00  0.567E+00
   6.472  0.169E+01  0.565E+00  0.565E+00  0.565E+00
   6.482  0.168E+01  0.559E+00  0.559E+00  0.559E+00
   6.492  0.165E+01  0.551E+00  0.551E+00  0.551E+00
   6.502  0.162E+01  0.539E+00  0.539E+00  0.539E+00
   6.512  0.157E+01  0.523E+00  0.523E+00  0.523E+00
   6.522  0.151E+01  0.505E+00  0.505E+00  0.505E+00
   6.532  0.145E+01  0.484E+00  0.484E+00  0.484E+00
   6.542  0.138E+01  0.460E+00  0.460E+00  0.460E+00
   6.552  0.130E+01  0.434E+00  0.434E+00  0.434E+00
   6.562  0.122E+01  0.406E+00  0.406E+00  0.406E+00
   6.572  0.113E+01  0.376E+00  0.376E+00  0.376E+00
   6.582  0.104E+01  0.346E+00  0.346E+00  0.346E+00
   6.592  0.947E+00  0.316E+00  0.316E+00  0.316E+00
   6.602  0.856E+00  0.285E+00  0.285E+00  0.285E+00
   6.612  0.766E+00  0.255E+00  0.255E+00  0.255E+00
   6.622  0.680E+00  0.227E+00  0.227E+00  0.227E+00
   6.632  0.598E+00  0.199E+00  0.199E+00  0.199E+00
   6.642  0.520E+00  0.173E+00  0.173E+00  0.173E+00
   6.652  0.449E+00  0.150E+00  0.150E+00  0.150E+00
   6.662  0.384E+00  0.128E+00  0.128E+00  0.128E+00
   6.672  0.325E+00  0.108E+00  0.108E+00  0.108E+00
   6.682  0.272E+00  0.906E-01  0.906E-01  0.906E-01
   6.692  0.226E+00  0.752E-01  0.752E-01  0.752E-01
   6.702  0.185E+00  0.618E-01  0.618E-01  0.618E-01
   6.712  0.151E+00  0.502E-01  0.502E-01  0.502E-01
   6.722  0.121E+00  0.404E-01  0.404E-01  0.404E-01
   6.732  0.967E-01  0.322E-01  0.322E-01  0.322E-01
   6.742  0.763E-01  0.254E-01  0.254E-01  0.254E-01
   6.752  0.596E-01  0.199E-01  0.199E-01  0.199E-01
   6.762  0.461E-01  0.154E-01  0.154E-01  0.154E-01
   6.772  0.353E-01  0.118E-01  0.118E-01  0.118E-01
   6.782  0.267E-01  0.891E-02  0.891E-02  0.891E-02
   6.792  0.200E-01  0.668E-02  0.668E-02  0.668E-02
   6.802  0.149E-01  0.495E-02  0.495E-02  0.495E-02
   6.812  0.109E-01  0.364E-02  0.364E-02  0.364E-02
   6.822  0.793E-02  0.264E-02  0.264E-02  0.264E-02
   6.832  0.570E-02  0.190E-02  0.190E-02  0.190E-02
   6.842  0.406E-02  0.135E-02  0.135E-02  0.135E-02
   6.852  0.286E-02  0.953E-03  0.953E-03  0.953E-03
   6.862  0.199E-02  0.664E-03  0.664E-03  0.664E-03
   6.872  0.137E-02  0.458E-03  0.458E-03  0.458E-03
   6.882  0.939E-03  0.313E-03  0.313E-03  0.313E-03
   6.892  0.634E-03  0.211E-03  0.211E-03  0.211E-03
   6.902  0.424E-03  0.141E-03  0.141E-03  0.141E-03
   6.912  0.280E-03  0.934E-04  0.934E-04  0.934E-04
   6.922  0.183E-03  0.611E-04  0.611E-04  0.611E-04
   6.932  0.119E-03  0.396E-04  0.396E-04  0.396E-04
   6.942  0.761E-04  0.254E-04  0.254E-04  0.254E-04
   6.952  0.482E-04  0.161E-04  0.161E-04  0.161E-04
   6.962  0.303E-04  0.101E-04  0.101E-04  0.101E-04
   6.972  0.188E-04  0.626E-05  0.626E-05  0.626E-05
   6.982  0.115E-04  0.385E-05  0.385E-05  0.385E-05
   6.992  0.701E-05  0.234E-05  0.234E-05  0.234E-05
   7.002  0.422E-05  0.141E-05  0.141E-05  0.141E-05
   7.012  0.251E-05  0.836E-06  0.836E-06  0.836E-06
   7.022  0.148E-05  0.492E-06  0.492E-06  0.492E-06
   7.032  0.860E-06  0.287E-06  0.287E-06  0.287E-06
   7.042  0.495E-06  0.165E-06  0.165E-06  0.165E-06
   7.052  0.282E-06  0.941E-07  0.941E-07  0.941E-07
   7.062  0.159E-06  0.531E-07  0.531E-07  0.531E-07
   7.072  0.889E-07  0.296E-07  0.296E-07  0.296E-07
   7.082  0.491E-07  0.164E-07  0.164E-07  0.164E-07
   7.092  0.268E-07  0.894E-08  0.894E-08  0.894E-08
   7.102  0.145E-07  0.483E-08  0.483E-08  0.483E-08
   7.112  0.775E-08  0.258E-08  0.258E-08  0.258E-08
   7.122  0.410E-08  0.137E-08  0.137E-08  0.137E-08
   7.132  0.215E-08  0.716E-09  0.716E-09  0.716E-09
   7.142  0.111E-08  0.371E-09  0.371E-09  0.371E-09
   7.152  0.569E-09  0.190E-09  0.190E-09  0.190E-09
   7.162  0.288E-09  0.961E-10  0.961E-10  0.961E-10
   7.172  0.144E-09  0.480E-10  0.480E-10  0.480E-10
   7.182  0.715E-10  0.238E-10  0.238E-10  0.238E-10
   7.192  0.345E-10  0.115E-10  0.115E-10  0.115E-10
   7.202  0.168E-10  0.559E-11  0.559E-11  0.559E-11
   7.212  0.723E-11  0.241E-11  0.241E-11  0.241E-11
   7.222  0.287E-11  0.957E-12  0.957E-12  0.957E-12
   7.232  0.000E+00  0.000E+00  0.000E+00  0.000E+00
   7.242  0.000E+00  0.000E+00  0.000E+00  0.000E+00
   7.252  0.000E+00  0.000E+00  0.000E+00  0.000E+00
   7.262  0.000E+00  0.000E+00  0.000E+00  0.000E+00
   7.272  0.000E+00  0.000E+00  0.000E+00  0.000E+00
   7.282  0.000E+00  0.000E+00  0.000E+00  0.000E+00
   7.292  0.000E+00  0.000E+00  0.000E+00  0.000E+00
   7.302  0.000E+00  0.000E+00  0.000E+00  0.000E+00
   7.312  0.000E+00  0.000E+00  0.000E+00  0.000E+00
   7.322  0.000E+00  0.000E+00  0.000E+00  0.000E+00
   7.332  0.545E-12  0.182E-12  0.182E-12  0.182E-12
   7.342  0.127E-11  0.424E-12  0.424E-12  0.424E-12
   7.352  0.279E-11  0.931E-12  0.931E-12  0.931E-12
   7.362  0.591E-11  0.197E-11  0.197E-11  0.197E-11
   7.372  0.122E-10  0.406E-11  0.406E-11  0.406E-11
   7.382  0.246E-10  0.821E-11  0.821E-11  0.821E-11
   7.392  0.492E-10  0.164E-10  0.164E-10  0.164E-10
   7.402  0.969E-10  0.323E-10  0.323E-10  0.323E-10
   7.412  0.189E-09  0.630E-10  0.630E-10  0.630E-10
   7.422  0.365E-09  0.122E-09  0.122E-09  0.122E-09
   7.432  0.696E-09  0.232E-09  0.232E-09  0.232E-09
   7.442  0.132E-08  0.438E-09  0.438E-09  0.438E-09
   7.452  0.246E-08  0.819E-09  0.819E-09  0.819E-09
   7.462  0.454E-08  0.151E-08  0.151E-08  0.151E-08
   7.472  0.831E-08  0.277E-08  0.277E-08  0.277E-08
   7.482  0.150E-07  0.501E-08  0.501E-08  0.501E-08
   7.492  0.269E-07  0.898E-08  0.898E-08  0.898E-08
   7.502  0.477E-07  0.159E-07  0.159E-07  0.159E-07
   7.512  0.836E-07  0.279E-07  0.279E-07  0.279E-07
   7.522  0.145E-06  0.483E-07  0.483E-07  0.483E-07
   7.532  0.249E-06  0.829E-07  0.829E-07  0.829E-07
   7.542  0.422E-06  0.141E-06  0.141E-06  0.141E-06
   7.552  0.710E-06  0.237E-06  0.237E-06  0.237E-06
   7.562  0.118E-05  0.393E-06  0.393E-06  0.393E-06
   7.572  0.194E-05  0.647E-06  0.647E-06  0.647E-06
   7.582  0.316E-05  0.105E-05  0.105E-05  0.105E-05
   7.592  0.508E-05  0.169E-05  0.169E-05  0.169E-05
   7.602  0.810E-05  0.270E-05  0.270E-05  0.270E-05
   7.612  0.128E-04  0.425E-05  0.425E-05  0.425E-05
   7.622  0.199E-04  0.664E-05  0.664E-05  0.664E-05
   7.632  0.307E-04  0.102E-04  0.102E-04  0.102E-04
   7.642  0.469E-04  0.156E-04  0.156E-04  0.156E-04
   7.652  0.709E-04  0.236E-04  0.236E-04  0.236E-04
   7.662  0.106E-03  0.354E-04  0.354E-04  0.354E-04
   7.672  0.157E-03  0.523E-04  0.523E-04  0.523E-04
   7.682  0.230E-03  0.767E-04  0.767E-04  0.767E-04
   7.692  0.333E-03  0.111E-03  0.111E-03  0.111E-03
   7.702  0.478E-03  0.159E-03  0.159E-03  0.159E-03
   7.712  0.679E-03  0.226E-03  0.226E-03  0.226E-03
   7.722  0.953E-03  0.318E-03  0.318E-03  0.318E-03
   7.732  0.132E-02  0.442E-03  0.442E-03  0.442E-03
   7.742  0.182E-02  0.608E-03  0.608E-03  0.608E-03
   7.752  0.248E-02  0.827E-03  0.827E-03  0.827E-03
   7.762  0.335E-02  0.112E-02  0.112E-02  0.112E-02
   7.772  0.446E-02  0.149E-02  0.149E-02  0.149E-02
   7.782  0.589E-02  0.196E-02  0.196E-02  0.196E-02
   7.792  0.770E-02  0.257E-02  0.257E-02  0.257E-02
   7.802  0.996E-02  0.332E-02  0.332E-02  0.332E-02
   7.812  0.128E-01  0.425E-02  0.425E-02  0.425E-02
   7.822  0.162E-01  0.539E-02  0.539E-02  0.539E-02
   7.832  0.203E-01  0.676E-02  0.676E-02  0.676E-02
   7.842  0.252E-01  0.840E-02  0.840E-02  0.840E-02
   7.852  0.310E-01  0.103E-01  0.103E-01  0.103E-01
   7.862  0.378E-01  0.126E-01  0.126E-01  0.126E-01
   7.872  0.456E-01  0.152E-01  0.152E-01  0.152E-01
   7.882  0.544E-01  0.181E-01  0.181E-01  0.181E-01
   7.892  0.644E-01  0.215E-01  0.215E-01  0.215E-01
   7.902  0.754E-01  0.251E-01  0.251E-01  0.251E-01
   7.912  0.875E-01  0.292E-01  0.292E-01  0.292E-01
   7.922  0.101E+00  0.335E-01  0.335E-01  0.335E-01
   7.932  0.115E+00  0.382E-01  0.382E-01  0.382E-01
   7.942  0.129E+00  0.431E-01  0.431E-01  0.431E-01
   7.952  0.145E+00  0.482E-01  0.482E-01  0.482E-01
   7.962  0.160E+00  0.534E-01  0.534E-01  0.534E-01
   7.972  0.176E+00  0.587E-01  0.587E-01  0.587E-01
   7.982  0.192E+00  0.639E-01  0.639E-01  0.639E-01
   7.992  0.207E+00  0.690E-01  0.690E-01  0.690E-01
   8.002  0.222E+00  0.740E-01  0.740E-01  0.740E-01
   8.012  0.236E+00  0.786E-01  0.786E-01  0.786E-01
   8.022  0.249E+00  0.829E-01  0.829E-01  0.829E-01
   8.032  0.261E+00  0.868E-01  0.868E-01  0.868E-01
   8.042  0.271E+00  0.903E-01  0.903E-01  0.903E-01
   8.052  0.280E+00  0.932E-01  0.932E-01  0.932E-01
   8.062  0.287E+00  0.956E-01  0.956E-01  0.956E-01
   8.072  0.292E+00  0.975E-01  0.975E-01  0.975E-01
   8.082  0.297E+00  0.989E-01  0.989E-01  0.989E-01
   8.092  0.299E+00  0.997E-01  0.997E-01  0.997E-01
   8.102  0.300E+00  0.100E+00  0.100E+00  0.100E+00
   8.112  0.300E+00  0.100E+00  0.100E+00  0.100E+00
   8.122  0.299E+00  0.996E-01  0.996E-01  0.996E-01
   8.132  0.297E+00  0.989E-01  0.989E-01  0.989E-01
   8.142  0.294E+00  0.978E-01  0.978E-01  0.978E-01
   8.152  0.290E+00  0.966E-01  0.966E-01  0.966E-01
   8.162  0.286E+00  0.952E-01  0.952E-01  0.952E-01
   8.172  0.281E+00  0.937E-01  0.937E-01  0.937E-01
   8.182  0.276E+00  0.922E-01  0.922E-01  0.922E-01
   8.192  0.272E+00  0.906E-01  0.906E-01  0.906E-01
   8.202  0.267E+00  0.890E-01  0.890E-01  0.890E-01
   8.212  0.263E+00  0.875E-01  0.875E-01  0.875E-01
   8.222  0.258E+00  0.861E-01  0.861E-01  0.861E-01
   8.232  0.254E+00  0.847E-01  0.847E-01  0.847E-01
   8.242  0.250E+00  0.835E-01  0.835E-01  0.835E-01
   8.252  0.247E+00  0.823E-01  0.823E-01  0.823E-01
   8.262  0.244E+00  0.812E-01  0.812E-01  0.812E-01
   8.272  0.241E+00  0.803E-01  0.803E-01  0.803E-01
   8.282  0.238E+00  0.794E-01  0.794E-01  0.794E-01
   8.292  0.236E+00  0.787E-01  0.787E-01  0.787E-01
   8.302  0.234E+00  0.780E-01  0.780E-01  0.780E-01
   8.312  0.232E+00  0.774E-01  0.774E-01  0.774E-01
   8.322  0.231E+00  0.769E-01  0.769E-01  0.769E-01
   8.332  0.229E+00  0.764E-01  0.764E-01  0.764E-01
   8.342  0.228E+00  0.761E-01  0.761E-01  0.761E-01
   8.352  0.227E+00  0.757E-01  0.757E-01  0.757E-01
   8.362  0.226E+00  0.755E-01  0.755E-01  0.755E-01
   8.372  0.226E+00  0.753E-01  0.753E-01  0.753E-01
   8.382  0.225E+00  0.751E-01  0.751E-01  0.751E-01
   8.392  0.225E+00  0.750E-01  0.750E-01  0.750E-01
   8.402  0.225E+00  0.749E-01  0.749E-01  0.749E-01
   8.412  0.225E+00  0.748E-01  0.748E-01  0.748E-01
   8.422  0.224E+00  0.748E-01  0.748E-01  0.748E-01
   8.432  0.225E+00  0.749E-01  0.749E-01  0.749E-01
   8.442  0.225E+00  0.749E-01  0.749E-01  0.749E-01
   8.452  0.225E+00  0.750E-01  0.750E-01  0.750E-01
   8.462  0.225E+00  0.751E-01  0.751E-01  0.751E-01
   8.472  0.226E+00  0.752E-01  0.752E-01  0.752E-01
   8.482  0.226E+00  0.754E-01  0.754E-01  0.754E-01
   8.492  0.227E+00  0.756E-01  0.756E-01  0.756E-01
   8.502  0.227E+00  0.758E-01  0.758E-01  0.758E-01
   8.512  0.228E+00  0.760E-01  0.760E-01  0.760E-01
   8.522  0.229E+00  0.763E-01  0.763E-01  0.763E-01
   8.532  0.230E+00  0.766E-01  0.766E-01  0.766E-01
   8.542  0.231E+00  0.769E-01  0.769E-01  0.769E-01
   8.552  0.232E+00  0.773E-01  0.773E-01  0.773E-01
   8.562  0.233E+00  0.777E-01  0.777E-01  0.777E-01
   8.572  0.234E+00  0.781E-01  0.781E-01  0.781E-01
   8.582  0.236E+00  0.786E-01  0.786E-01  0.786E-01
   8.592  0.237E+00  0.791E-01  0.791E-01  0.791E-01
   8.602  0.239E+00  0.797E-01  0.797E-01  0.797E-01
   8.612  0.241E+00  0.803E-01  0.803E-01  0.803E-01
   8.622  0.243E+00  0.810E-01  0.810E-01  0.810E-01
   8.632  0.245E+00  0.817E-01  0.817E-01  0.817E-01
   8.642  0.248E+00  0.826E-01  0.826E-01  0.826E-01
   8.652  0.251E+00  0.836E-01  0.836E-01  0.836E-01
   8.662  0.255E+00  0.848E-01  0.848E-01  0.848E-01
   8.672  0.259E+00  0.862E-01  0.862E-01  0.862E-01
   8.682  0.264E+00  0.879E-01  0.879E-01  0.879E-01
   8.692  0.270E+00  0.899E-01  0.899E-01  0.899E-01
   8.702  0.277E+00  0.924E-01  0.924E-01  0.924E-01
   8.712  0.286E+00  0.953E-01  0.953E-01  0.953E-01
   8.722  0.297E+00  0.989E-01  0.989E-01  0.989E-01
   8.732  0.310E+00  0.103E+00  0.103E+00  0.103E+00
   8.742  0.325E+00  0.108E+00  0.108E+00  0.108E+00
   8.752  0.344E+00  0.115E+00  0.115E+00  0.115E+00
   8.762  0.367E+00  0.122E+00  0.122E+00  0.122E+00
   8.772  0.394E+00  0.131E+00  0.131E+00  0.131E+00
   8.782  0.426E+00  0.142E+00  0.142E+00  0.142E+00
   8.792  0.464E+00  0.155E+00  0.155E+00  0.155E+00
   8.802  0.508E+00  0.169E+00  0.169E+00  0.169E+00
   8.812  0.558E+00  0.186E+00  0.186E+00  0.186E+00
   8.822  0.615E+00  0.205E+00  0.205E+00  0.205E+00
   8.832  0.679E+00  0.226E+00  0.226E+00  0.226E+00
   8.842  0.750E+00  0.250E+00  0.250E+00  0.250E+00
   8.852  0.829E+00  0.276E+00  0.276E+00  0.276E+00
   8.862  0.914E+00  0.305E+00  0.305E+00  0.305E+00
   8.872  0.100E+01  0.335E+00  0.335E+00  0.335E+00
   8.882  0.110E+01  0.367E+00  0.367E+00  0.367E+00
   8.892  0.120E+01  0.400E+00  0.400E+00  0.400E+00
   8.902  0.130E+01  0.434E+00  0.434E+00  0.434E+00
   8.912  0.141E+01  0.469E+00  0.469E+00  0.469E+00
   8.922  0.151E+01  0.503E+00  0.503E+00  0.503E+00
   8.932  0.161E+01  0.536E+00  0.536E+00  0.536E+00
   8.942  0.170E+01  0.568E+00  0.568E+00  0.568E+00
   8.952  0.179E+01  0.597E+00  0.597E+00  0.597E+00
   8.962  0.187E+01  0.623E+00  0.623E+00  0.623E+00
   8.972  0.194E+01  0.646E+00  0.646E+00  0.646E+00
   8.982  0.199E+01  0.664E+00  0.664E+00  0.664E+00
   8.992  0.204E+01  0.679E+00  0.679E+00  0.679E+00
   9.002  0.206E+01  0.688E+00  0.688E+00  0.688E+00
   9.012  0.208E+01  0.693E+00  0.693E+00  0.693E+00
   9.022  0.208E+01  0.693E+00  0.693E+00  0.693E+00
   9.032  0.207E+01  0.688E+00  0.688E+00  0.688E+00
   9.042  0.204E+01  0.679E+00  0.679E+00  0.679E+00
   9.052  0.200E+01  0.666E+00  0.666E+00  0.666E+00
   9.062  0.195E+01  0.649E+00  0.649E+00  0.649E+00
   9.072  0.189E+01  0.629E+00  0.629E+00  0.629E+00
   9.082  0.182E+01  0.607E+00  0.607E+00  0.607E+00
   9.092  0.175E+01  0.583E+00  0.583E+00  0.583E+00
   9.102  0.167E+01  0.557E+00  0.557E+00  0.557E+00
   9.112  0.159E+01  0.531E+00  0.531E+00  0.531E+00
   9.122  0.151E+01  0.504E+00  0.504E+00  0.504E+00
   9.132  0.143E+01  0.478E+00  0.478E+00  0.478E+00
   9.142  0.136E+01  0.453E+00  0.453E+00  0.453E+00
   9.152  0.129E+01  0.428E+00  0.428E+00  0.428E+00
   9.162  0.122E+01  0.406E+00  0.406E+00  0.406E+00
   9.172  0.115E+01  0.384E+00  0.384E+00  0.384E+00
   9.182  0.109E+01  0.364E+00  0.364E+00  0.364E+00
   9.192  0.104E+01  0.347E+00  0.347E+00  0.347E+00
   9.202  0.991E+00  0.330E+00  0.330E+00  0.330E+00
   9.212  0.948E+00  0.316E+00  0.316E+00  0.316E+00
   9.222  0.910E+00  0.303E+00  0.303E+00  0.303E+00
   9.232  0.877E+00  0.292E+00  0.292E+00  0.292E+00
   9.242  0.848E+00  0.283E+00  0.283E+00  0.283E+00
   9.252  0.823E+00  0.274E+00  0.274E+00  0.274E+00
   9.262  0.801E+00  0.267E+00  0.267E+00  0.267E+00
   9.272  0.782E+00  0.261E+00  0.261E+00  0.261E+00
   9.282  0.766E+00  0.255E+00  0.255E+00  0.255E+00
   9.292  0.753E+00  0.251E+00  0.251E+00  0.251E+00
   9.302  0.741E+00  0.247E+00  0.247E+00  0.247E+00
   9.312  0.732E+00  0.244E+00  0.244E+00  0.244E+00
   9.322  0.723E+00  0.241E+00  0.241E+00  0.241E+00
   9.332  0.716E+00  0.239E+00  0.239E+00  0.239E+00
   9.342  0.710E+00  0.237E+00  0.237E+00  0.237E+00
   9.352  0.705E+00  0.235E+00  0.235E+00  0.235E+00
   9.362  0.701E+00  0.234E+00  0.234E+00  0.234E+00
   9.372  0.697E+00  0.232E+00  0.232E+00  0.232E+00
   9.382  0.695E+00  0.232E+00  0.232E+00  0.232E+00
   9.392  0.692E+00  0.231E+00  0.231E+00  0.231E+00
   9.402  0.691E+00  0.230E+00  0.230E+00  0.230E+00
   9.412  0.690E+00  0.230E+00  0.230E+00  0.230E+00
   9.422  0.690E+00  0.230E+00  0.230E+00  0.230E+00
   9.432  0.691E+00  0.230E+00  0.230E+00  0.230E+00
   9.442  0.692E+00  0.231E+00  0.231E+00  0.231E+00
   9.452  0.695E+00  0.232E+00  0.232E+00  0.232E+00
   9.462  0.699E+00  0.233E+00  0.233E+00  0.233E+00
   9.472  0.705E+00  0.235E+00  0.235E+00  0.235E+00
   9.482  0.712E+00  0.237E+00  0.237E+00  0.237E+00
   9.492  0.722E+00  0.241E+00  0.241E+00  0.241E+00
   9.502  0.734E+00  0.245E+00  0.245E+00  0.245E+00
   9.512  0.750E+00  0.250E+00  0.250E+00  0.250E+00
   9.522  0.769E+00  0.256E+00  0.256E+00  0.256E+00
   9.532  0.792E+00  0.264E+00  0.264E+00  0.264E+00
   9.542  0.820E+00  0.273E+00  0.273E+00  0.273E+00
   9.552  0.854E+00  0.285E+00  0.285E+00  0.285E+00
   9.562  0.893E+00  0.298E+00  0.298E+00  0.298E+00
   9.572  0.940E+00  0.313E+00  0.313E+00  0.313E+00
   9.582  0.993E+00  0.331E+00  0.331E+00  0.331E+00
   9.592  0.105E+01  0.351E+00  0.351E+00  0.351E+00
   9.602  0.112E+01  0.374E+00  0.374E+00  0.374E+00
   9.612  0.120E+01  0.400E+00  0.400E+00  0.400E+00
   9.622  0.129E+01  0.429E+00  0.429E+00  0.429E+00
   9.632  0.138E+01  0.460E+00  0.460E+00  0.460E+00
   9.642  0.148E+01  0.493E+00  0.493E+00  0.493E+00
   9.652  0.159E+01  0.529E+00  0.529E+00  0.529E+00
   9.662  0.170E+01  0.567E+00  0.567E+00  0.567E+00
   9.672  0.182E+01  0.606E+00  0.606E+00  0.606E+00
   9.682  0.194E+01  0.647E+00  0.647E+00  0.647E+00
   9.692  0.207E+01  0.689E+00  0.689E+00  0.689E+00
   9.702  0.219E+01  0.731E+00  0.731E+00  0.731E+00
   9.712  0.232E+01  0.773E+00  0.773E+00  0.773E+00
   9.722  0.244E+01  0.814E+00  0.814E+00  0.814E+00
   9.732  0.256E+01  0.854E+00  0.854E+00  0.854E+00
   9.742  0.268E+01  0.892E+00  0.892E+00  0.892E+00
   9.752  0.278E+01  0.928E+00  0.928E+00  0.928E+00
   9.762  0.289E+01  0.962E+00  0.962E+00  0.962E+00
   9.772  0.298E+01  0.992E+00  0.992E+00  0.992E+00
   9.782  0.306E+01  0.102E+01  0.102E+01  0.102E+01
   9.792  0.313E+01  0.104E+01  0.104E+01  0.104E+01
   9.802  0.319E+01  0.106E+01  0.106E+01  0.106E+01
   9.812  0.324E+01  0.108E+01  0.108E+01  0.108E+01
   9.822  0.327E+01  0.109E+01  0.109E+01  0.109E+01
   9.832  0.329E+01  0.110E+01  0.110E+01  0.110E+01
   9.842  0.330E+01  0.110E+01  0.110E+01  0.110E+01
   9.852  0.329E+01  0.110E+01  0.110E+01  0.110E+01
   9.862  0.326E+01  0.109E+01  0.109E+01  0.109E+01
   9.872  0.322E+01  0.107E+01  0.107E+01  0.107E+01
   9.882  0.317E+01  0.106E+01  0.106E+01  0.106E+01
   9.892  0.310E+01  0.103E+01  0.103E+01  0.103E+01
   9.902  0.301E+01  0.100E+01  0.100E+01  0.100E+01
   9.912  0.291E+01  0.970E+00  0.970E+00  0.970E+00
   9.922  0.280E+01  0.932E+00  0.932E+00  0.932E+00
   9.932  0.267E+01  0.890E+00  0.890E+00  0.890E+00
   9.942  0.253E+01  0.844E+00  0.844E+00  0.844E+00
   9.952  0.238E+01  0.795E+00  0.795E+00  0.795E+00
   9.962  0.223E+01  0.744E+00  0.744E+00  0.744E+00
   9.972  0.207E+01  0.690E+00  0.690E+00  0.690E+00
   9.982  0.191E+01  0.636E+00  0.636E+00  0.636E+00
   9.992  0.174E+01  0.582E+00  0.582E+00  0.582E+00
  10.002  0.158E+01  0.527E+00  0.527E+00  0.527E+00
  10.012  0.142E+01  0.475E+00  0.475E+00  0.475E+00
  10.022  0.127E+01  0.423E+00  0.423E+00  0.423E+00
  10.032  0.112E+01  0.375E+00  0.375E+00  0.375E+00
  10.042  0.986E+00  0.329E+00  0.329E+00  0.329E+00
  10.052  0.858E+00  0.286E+00  0.286E+00  0.286E+00
  10.062  0.740E+00  0.247E+00  0.247E+00  0.247E+00
  10.072  0.633E+00  0.211E+00  0.211E+00  0.211E+00
  10.082  0.537E+00  0.179E+00  0.179E+00  0.179E+00
  10.092  0.452E+00  0.151E+00  0.151E+00  0.151E+00
  10.102  0.378E+00  0.126E+00  0.126E+00  0.126E+00
  10.112  0.313E+00  0.104E+00  0.104E+00  0.104E+00
  10.122  0.258E+00  0.861E-01  0.861E-01  0.861E-01
  10.132  0.212E+00  0.705E-01  0.705E-01  0.705E-01
  10.142  0.173E+00  0.576E-01  0.576E-01  0.576E-01
  10.152  0.141E+00  0.469E-01  0.469E-01  0.469E-01
  10.162  0.115E+00  0.382E-01  0.382E-01  0.382E-01
  10.172  0.937E-01  0.312E-01  0.312E-01  0.312E-01
  10.182  0.770E-01  0.257E-01  0.257E-01  0.257E-01
  10.192  0.639E-01  0.213E-01  0.213E-01  0.213E-01
  10.202  0.537E-01  0.179E-01  0.179E-01  0.179E-01
  10.212  0.459E-01  0.153E-01  0.153E-01  0.153E-01
  10.222  0.401E-01  0.134E-01  0.134E-01  0.134E-01
  10.232  0.358E-01  0.119E-01  0.119E-01  0.119E-01
  10.242  0.326E-01  0.109E-01  0.109E-01  0.109E-01
  10.252  0.304E-01  0.101E-01  0.101E-01  0.101E-01
  10.262  0.289E-01  0.962E-02  0.962E-02  0.962E-02
  10.272  0.278E-01  0.928E-02  0.928E-02  0.928E-02
  10.282  0.272E-01  0.907E-02  0.907E-02  0.907E-02
  10.292  0.269E-01  0.895E-02  0.895E-02  0.895E-02
  10.302  0.267E-01  0.890E-02  0.890E-02  0.890E-02
  10.312  0.267E-01  0.889E-02  0.889E-02  0.889E-02
  10.322  0.268E-01  0.892E-02  0.892E-02  0.892E-02
  10.332  0.269E-01  0.897E-02  0.897E-02  0.897E-02
  10.342  0.271E-01  0.904E-02  0.904E-02  0.904E-02
  10.352  0.273E-01  0.911E-02  0.911E-02  0.911E-02
  10.362  0.276E-01  0.919E-02  0.919E-02  0.919E-02
  10.372  0.278E-01  0.927E-02  0.927E-02  0.927E-02
  10.382  0.281E-01  0.936E-02  0.936E-02  0.936E-02
  10.392  0.283E-01  0.944E-02  0.944E-02  0.944E-02
  10.402  0.286E-01  0.953E-02  0.953E-02  0.953E-02
  10.412  0.288E-01  0.961E-02  0.961E-02  0.961E-02
  10.422  0.291E-01  0.969E-02  0.969E-02  0.969E-02
  10.432  0.293E-01  0.978E-02  0.978E-02  0.978E-02
  10.442  0.296E-01  0.986E-02  0.986E-02  0.986E-02
  10.452  0.298E-01  0.995E-02  0.995E-02  0.995E-02
  10.462  0.301E-01  0.100E-01  0.100E-01  0.100E-01
  10.472  0.303E-01  0.101E-01  0.101E-01  0.101E-01
  10.482  0.306E-01  0.102E-01  0.102E-01  0.102E-01
  10.492  0.308E-01  0.103E-01  0.103E-01  0.103E-01
  10.502  0.310E-01  0.103E-01  0.103E-01  0.103E-01
  10.512  0.312E-01  0.104E-01  0.104E-01  0.104E-01
  10.522  0.315E-01  0.105E-01  0.105E-01  0.105E-01
  10.532  0.317E-01  0.106E-01  0.106E-01  0.106E-01
  10.542  0.319E-01  0.106E-01  0.106E-01  0.106E-01
  10.552  0.321E-01  0.107E-01  0.107E-01  0.107E-01
  10.562  0.323E-01  0.108E-01  0.108E-01  0.108E-01
  10.572  0.325E-01  0.108E-01  0.108E-01  0.108E-01
  10.582  0.326E-01  0.109E-01  0.109E-01  0.109E-01
  10.592  0.329E-01  0.110E-01  0.110E-01  0.110E-01
  10.602  0.331E-01  0.110E-01  0.110E-01  0.110E-01
  10.612  0.333E-01  0.111E-01  0.111E-01  0.111E-01
  10.622  0.335E-01  0.112E-01  0.112E-01  0.112E-01
  10.632  0.337E-01  0.112E-01  0.112E-01  0.112E-01
  10.642  0.339E-01  0.113E-01  0.113E-01  0.113E-01
  10.652  0.341E-01  0.114E-01  0.114E-01  0.114E-01
  10.662  0.343E-01  0.114E-01  0.114E-01  0.114E-01
  10.672  0.345E-01  0.115E-01  0.115E-01  0.115E-01
  10.682  0.346E-01  0.115E-01  0.115E-01  0.115E-01
  10.692  0.348E-01  0.116E-01  0.116E-01  0.116E-01
  10.702  0.349E-01  0.116E-01  0.116E-01  0.116E-01
  10.712  0.351E-01  0.117E-01  0.117E-01  0.117E-01
  10.722  0.352E-01  0.117E-01  0.117E-01  0.117E-01
  10.732  0.354E-01  0.118E-01  0.118E-01  0.118E-01
  10.742  0.355E-01  0.118E-01  0.118E-01  0.118E-01
  10.752  0.357E-01  0.119E-01  0.119E-01  0.119E-01
  10.762  0.358E-01  0.119E-01  0.119E-01  0.119E-01
  10.772  0.360E-01  0.120E-01  0.120E-01  0.120E-01
  10.782  0.362E-01  0.121E-01  0.121E-01  0.121E-01
  10.792  0.364E-01  0.121E-01  0.121E-01  0.121E-01
  10.802  0.366E-01  0.122E-01  0.122E-01  0.122E-01
  10.812  0.368E-01  0.123E-01  0.123E-01  0.123E-01
  10.822  0.370E-01  0.123E-01  0.123E-01  0.123E-01
  10.832  0.371E-01  0.124E-01  0.124E-01  0.124E-01
  10.842  0.373E-01  0.124E-01  0.124E-01  0.124E-01
  10.852  0.374E-01  0.125E-01  0.125E-01  0.125E-01
  10.862  0.375E-01  0.125E-01  0.125E-01  0.125E-01
  10.872  0.376E-01  0.125E-01  0.125E-01  0.125E-01
  10.882  0.377E-01  0.126E-01  0.126E-01  0.126E-01
  10.892  0.378E-01  0.126E-01  0.126E-01  0.126E-01
  10.902  0.379E-01  0.126E-01  0.126E-01  0.126E-01
  10.912  0.380E-01  0.127E-01  0.127E-01  0.127E-01
  10.922  0.382E-01  0.127E-01  0.127E-01  0.127E-01
  10.932  0.383E-01  0.128E-01  0.128E-01  0.128E-01
  10.942  0.385E-01  0.128E-01  0.128E-01  0.128E-01
  10.952  0.387E-01  0.129E-01  0.129E-01  0.129E-01
  10.962  0.389E-01  0.130E-01  0.130E-01  0.130E-01
  10.972  0.391E-01  0.130E-01  0.130E-01  0.130E-01
  10.982  0.392E-01  0.131E-01  0.131E-01  0.131E-01
  10.992  0.394E-01  0.131E-01  0.131E-01  0.131E-01
  11.002  0.396E-01  0.132E-01  0.132E-01  0.132E-01
  11.012  0.397E-01  0.132E-01  0.132E-01  0.132E-01
  11.022  0.398E-01  0.133E-01  0.133E-01  0.133E-01
  11.032  0.399E-01  0.133E-01  0.133E-01  0.133E-01
  11.042  0.400E-01  0.133E-01  0.133E-01  0.133E-01
  11.052  0.400E-01  0.133E-01  0.133E-01  0.133E-01
  11.062  0.401E-01  0.134E-01  0.134E-01  0.134E-01
  11.072  0.401E-01  0.134E-01  0.134E-01  0.134E-01
  11.082  0.402E-01  0.134E-01  0.134E-01  0.134E-01
  11.092  0.403E-01  0.134E-01  0.134E-01  0.134E-01
  11.102  0.404E-01  0.135E-01  0.135E-01  0.135E-01
  11.112  0.406E-01  0.135E-01  0.135E-01  0.135E-01
  11.122  0.407E-01  0.136E-01  0.136E-01  0.136E-01
  11.132  0.409E-01  0.136E-01  0.136E-01  0.136E-01
  11.142  0.411E-01  0.137E-01  0.137E-01  0.137E-01
  11.152  0.413E-01  0.138E-01  0.138E-01  0.138E-01
  11.162  0.415E-01  0.138E-01  0.138E-01  0.138E-01
  11.172  0.417E-01  0.139E-01  0.139E-01  0.139E-01
  11.182  0.418E-01  0.139E-01  0.139E-01  0.139E-01
  11.192  0.419E-01  0.140E-01  0.140E-01  0.140E-01
  11.202  0.420E-01  0.140E-01  0.140E-01  0.140E-01
  11.212  0.421E-01  0.140E-01  0.140E-01  0.140E-01
  11.222  0.421E-01  0.140E-01  0.140E-01  0.140E-01
  11.232  0.421E-01  0.140E-01  0.140E-01  0.140E-01
  11.242  0.421E-01  0.140E-01  0.140E-01  0.140E-01
  11.252  0.422E-01  0.141E-01  0.141E-01  0.141E-01
  11.262  0.422E-01  0.141E-01  0.141E-01  0.141E-01
  11.272  0.423E-01  0.141E-01  0.141E-01  0.141E-01
  11.282  0.424E-01  0.141E-01  0.141E-01  0.141E-01
  11.292  0.425E-01  0.142E-01  0.142E-01  0.142E-01
  11.302  0.427E-01  0.142E-01  0.142E-01  0.142E-01
  11.312  0.429E-01  0.143E-01  0.143E-01  0.143E-01
  11.322  0.431E-01  0.144E-01  0.144E-01  0.144E-01
  11.332  0.433E-01  0.144E-01  0.144E-01  0.144E-01
  11.342  0.435E-01  0.145E-01  0.145E-01  0.145E-01
  11.352  0.437E-01  0.146E-01  0.146E-01  0.146E-01
  11.362  0.438E-01  0.146E-01  0.146E-01  0.146E-01
  11.372  0.439E-01  0.146E-01  0.146E-01  0.146E-01
  11.382  0.440E-01  0.147E-01  0.147E-01  0.147E-01
  11.392  0.440E-01  0.147E-01  0.147E-01  0.147E-01
  11.402  0.440E-01  0.147E-01  0.147E-01  0.147E-01
  11.412  0.440E-01  0.147E-01  0.147E-01  0.147E-01
  11.422  0.440E-01  0.147E-01  0.147E-01  0.147E-01
  11.432  0.440E-01  0.147E-01  0.147E-01  0.147E-01
  11.442  0.440E-01  0.147E-01  0.147E-01  0.147E-01
  11.452  0.441E-01  0.147E-01  0.147E-01  0.147E-01
  11.462  0.442E-01  0.147E-01  0.147E-01  0.147E-01
  11.472  0.443E-01  0.148E-01  0.148E-01  0.148E-01
  11.482  0.445E-01  0.148E-01  0.148E-01  0.148E-01
  11.492  0.447E-01  0.149E-01  0.149E-01  0.149E-01
  11.502  0.449E-01  0.150E-01  0.150E-01  0.150E-01
  11.512  0.451E-01  0.150E-01  0.150E-01  0.150E-01
  11.522  0.453E-01  0.151E-01  0.151E-01  0.151E-01
  11.532  0.455E-01  0.152E-01  0.152E-01  0.152E-01
  11.542  0.457E-01  0.152E-01  0.152E-01  0.152E-01
  11.552  0.458E-01  0.153E-01  0.153E-01  0.153E-01
  11.562  0.458E-01  0.153E-01  0.153E-01  0.153E-01
  11.572  0.458E-01  0.153E-01  0.153E-01  0.153E-01
  11.582  0.458E-01  0.153E-01  0.153E-01  0.153E-01
  11.592  0.458E-01  0.153E-01  0.153E-01  0.153E-01
  11.602  0.457E-01  0.152E-01  0.152E-01  0.152E-01
  11.612  0.457E-01  0.152E-01  0.152E-01  0.152E-01
  11.622  0.457E-01  0.152E-01  0.152E-01  0.152E-01
  11.632  0.457E-01  0.152E-01  0.152E-01  0.152E-01
  11.642  0.458E-01  0.153E-01  0.153E-01  0.153E-01
  11.652  0.459E-01  0.153E-01  0.153E-01  0.153E-01
  11.662  0.461E-01  0.154E-01  0.154E-01  0.154E-01
  11.672  0.463E-01  0.154E-01  0.154E-01  0.154E-01
  11.682  0.465E-01  0.155E-01  0.155E-01  0.155E-01
  11.692  0.467E-01  0.156E-01  0.156E-01  0.156E-01
  11.702  0.470E-01  0.157E-01  0.157E-01  0.157E-01
  11.712  0.472E-01  0.157E-01  0.157E-01  0.157E-01
  11.722  0.473E-01  0.158E-01  0.158E-01  0.158E-01
  11.732  0.474E-01  0.158E-01  0.158E-01  0.158E-01
  11.742  0.475E-01  0.158E-01  0.158E-01  0.158E-01
  11.752  0.475E-01  0.158E-01  0.158E-01  0.158E-01
  11.762  0.475E-01  0.158E-01  0.158E-01  0.158E-01
  11.772  0.475E-01  0.158E-01  0.158E-01  0.158E-01
  11.782  0.474E-01  0.158E-01  0.158E-01  0.158E-01
  11.792  0.474E-01  0.158E-01  0.158E-01  0.158E-01
  11.802  0.473E-01  0.158E-01  0.158E-01  0.158E-01
  11.812  0.473E-01  0.158E-01  0.158E-01  0.158E-01
  11.822  0.474E-01  0.158E-01  0.158E-01  0.158E-01
  11.832  0.475E-01  0.158E-01  0.158E-01  0.158E-01
  11.842  0.476E-01  0.159E-01  0.159E-01  0.159E-01
  11.852  0.478E-01  0.159E-01  0.159E-01  0.159E-01
  11.862  0.480E-01  0.160E-01  0.160E-01  0.160E-01
  11.872  0.482E-01  0.161E-01  0.161E-01  0.161E-01
  11.882  0.485E-01  0.162E-01  0.162E-01  0.162E-01
  11.892  0.487E-01  0.162E-01  0.162E-01  0.162E-01
  11.902  0.489E-01  0.163E-01  0.163E-01  0.163E-01
  11.912  0.490E-01  0.163E-01  0.163E-01  0.163E-01
  11.922  0.491E-01  0.164E-01  0.164E-01  0.164E-01
  11.932  0.491E-01  0.164E-01  0.164E-01  0.164E-01
  11.942  0.491E-01  0.164E-01  0.164E-01  0.164E-01
  11.952  0.491E-01  0.164E-01  0.164E-01  0.164E-01
  11.962  0.490E-01  0.163E-01  0.163E-01  0.163E-01
  11.972  0.489E-01  0.163E-01  0.163E-01  0.163E-01
  11.982  0.489E-01  0.163E-01  0.163E-01  0.163E-01
  11.992  0.488E-01  0.163E-01  0.163E-01  0.163E-01
  12.002  0.489E-01  0.163E-01  0.163E-01  0.163E-01
  12.012  0.489E-01  0.163E-01  0.163E-01  0.163E-01
  12.022  0.490E-01  0.163E-01  0.163E-01  0.163E-01
  12.032  0.492E-01  0.164E-01  0.164E-01  0.164E-01
  12.042  0.494E-01  0.165E-01  0.165E-01  0.165E-01
  12.052  0.496E-01  0.165E-01  0.165E-01  0.165E-01
  12.062  0.499E-01  0.166E-01  0.166E-01  0.166E-01
  12.072  0.501E-01  0.167E-01  0.167E-01  0.167E-01
  12.082  0.503E-01  0.168E-01  0.168E-01  0.168E-01
  12.092  0.505E-01  0.168E-01  0.168E-01  0.168E-01
  12.102  0.506E-01  0.169E-01  0.169E-01  0.169E-01
  12.112  0.506E-01  0.169E-01  0.169E-01  0.169E-01
  12.122  0.507E-01  0.169E-01  0.169E-01  0.169E-01
  12.132  0.506E-01  0.169E-01  0.169E-01  0.169E-01
  12.142  0.506E-01  0.169E-01  0.169E-01  0.169E-01
  12.152  0.505E-01  0.168E-01  0.168E-01  0.168E-01
  12.162  0.504E-01  0.168E-01  0.168E-01  0.168E-01
  12.172  0.504E-01  0.168E-01  0.168E-01  0.168E-01
  12.182  0.503E-01  0.168E-01  0.168E-01  0.168E-01
  12.192  0.504E-01  0.168E-01  0.168E-01  0.168E-01
  12.202  0.505E-01  0.168E-01  0.168E-01  0.168E-01
  12.212  0.506E-01  0.169E-01  0.169E-01  0.169E-01
  12.222  0.508E-01  0.169E-01  0.169E-01  0.169E-01
  12.232  0.510E-01  0.170E-01  0.170E-01  0.170E-01
  12.242  0.512E-01  0.171E-01  0.171E-01  0.171E-01
  12.252  0.515E-01  0.172E-01  0.172E-01  0.172E-01
  12.262  0.517E-01  0.172E-01  0.172E-01  0.172E-01
  12.272  0.519E-01  0.173E-01  0.173E-01  0.173E-01
  12.282  0.520E-01  0.173E-01  0.173E-01  0.173E-01
  12.292  0.521E-01  0.174E-01  0.174E-01  0.174E-01
  12.302  0.521E-01  0.174E-01  0.174E-01  0.174E-01
  12.312  0.521E-01  0.174E-01  0.174E-01  0.174E-01
  12.322  0.521E-01  0.174E-01  0.174E-01  0.174E-01
  12.332  0.520E-01  0.173E-01  0.173E-01  0.173E-01
  12.342  0.519E-01  0.173E-01  0.173E-01  0.173E-01
  12.352  0.518E-01  0.173E-01  0.173E-01  0.173E-01
  12.362  0.518E-01  0.173E-01  0.173E-01  0.173E-01
  12.372  0.518E-01  0.173E-01  0.173E-01  0.173E-01
  12.382  0.519E-01  0.173E-01  0.173E-01  0.173E-01
  12.392  0.520E-01  0.173E-01  0.173E-01  0.173E-01
  12.402  0.522E-01  0.174E-01  0.174E-01  0.174E-01
  12.412  0.524E-01  0.175E-01  0.175E-01  0.175E-01
  12.422  0.526E-01  0.175E-01  0.175E-01  0.175E-01
  12.432  0.528E-01  0.176E-01  0.176E-01  0.176E-01
  12.442  0.531E-01  0.177E-01  0.177E-01  0.177E-01
  12.452  0.533E-01  0.178E-01  0.178E-01  0.178E-01
  12.462  0.534E-01  0.178E-01  0.178E-01  0.178E-01
  12.472  0.535E-01  0.178E-01  0.178E-01  0.178E-01
  12.482  0.536E-01  0.179E-01  0.179E-01  0.179E-01
  12.492  0.536E-01  0.179E-01  0.179E-01  0.179E-01
  12.502  0.535E-01  0.178E-01  0.178E-01  0.178E-01
  12.512  0.535E-01  0.178E-01  0.178E-01  0.178E-01
  12.522  0.534E-01  0.178E-01  0.178E-01  0.178E-01
  12.532  0.533E-01  0.178E-01  0.178E-01  0.178E-01
  12.542  0.533E-01  0.178E-01  0.178E-01  0.178E-01
  12.552  0.533E-01  0.178E-01  0.178E-01  0.178E-01
  12.562  0.533E-01  0.178E-01  0.178E-01  0.178E-01
  12.572  0.534E-01  0.178E-01  0.178E-01  0.178E-01
  12.582  0.536E-01  0.179E-01  0.179E-01  0.179E-01
  12.592  0.538E-01  0.179E-01  0.179E-01  0.179E-01
  12.602  0.540E-01  0.180E-01  0.180E-01  0.180E-01
  12.612  0.542E-01  0.181E-01  0.181E-01  0.181E-01
  12.622  0.544E-01  0.181E-01  0.181E-01  0.181E-01
  12.632  0.546E-01  0.182E-01  0.182E-01  0.182E-01
  12.642  0.548E-01  0.183E-01  0.183E-01  0.183E-01
  12.652  0.549E-01  0.183E-01  0.183E-01  0.183E-01
  12.662  0.550E-01  0.183E-01  0.183E-01  0.183E-01
  12.672  0.550E-01  0.183E-01  0.183E-01  0.183E-01
  12.682  0.550E-01  0.183E-01  0.183E-01  0.183E-01
  12.692  0.549E-01  0.183E-01  0.183E-01  0.183E-01
  12.702  0.549E-01  0.183E-01  0.183E-01  0.183E-01
  12.712  0.548E-01  0.183E-01  0.183E-01  0.183E-01
  12.722  0.548E-01  0.183E-01  0.183E-01  0.183E-01
  12.732  0.548E-01  0.183E-01  0.183E-01  0.183E-01
  12.742  0.548E-01  0.183E-01  0.183E-01  0.183E-01
  12.752  0.549E-01  0.183E-01  0.183E-01  0.183E-01
  12.762  0.550E-01  0.183E-01  0.183E-01  0.183E-01
  12.772  0.552E-01  0.184E-01  0.184E-01  0.184E-01
  12.782  0.554E-01  0.185E-01  0.185E-01  0.185E-01
  12.792  0.557E-01  0.186E-01  0.186E-01  0.186E-01
  12.802  0.559E-01  0.186E-01  0.186E-01  0.186E-01
  12.812  0.561E-01  0.187E-01  0.187E-01  0.187E-01
  12.822  0.563E-01  0.188E-01  0.188E-01  0.188E-01
  12.832  0.564E-01  0.188E-01  0.188E-01  0.188E-01
  12.842  0.565E-01  0.188E-01  0.188E-01  0.188E-01
  12.852  0.565E-01  0.188E-01  0.188E-01  0.188E-01
  12.862  0.565E-01  0.188E-01  0.188E-01  0.188E-01
  12.872  0.565E-01  0.188E-01  0.188E-01  0.188E-01
  12.882  0.564E-01  0.188E-01  0.188E-01  0.188E-01
  12.892  0.564E-01  0.188E-01  0.188E-01  0.188E-01
  12.902  0.564E-01  0.188E-01  0.188E-01  0.188E-01
  12.912  0.564E-01  0.188E-01  0.188E-01  0.188E-01
  12.922  0.564E-01  0.188E-01  0.188E-01  0.188E-01
  12.932  0.565E-01  0.188E-01  0.188E-01  0.188E-01
  12.942  0.566E-01  0.189E-01  0.189E-01  0.189E-01
  12.952  0.568E-01  0.189E-01  0.189E-01  0.189E-01
  12.962  0.570E-01  0.190E-01  0.190E-01  0.190E-01
  12.972  0.572E-01  0.191E-01  0.191E-01  0.191E-01
  12.982  0.575E-01  0.192E-01  0.192E-01  0.192E-01
  12.992  0.577E-01  0.192E-01  0.192E-01  0.192E-01
  13.002  0.578E-01  0.193E-01  0.193E-01  0.193E-01
  13.012  0.580E-01  0.193E-01  0.193E-01  0.193E-01
  13.022  0.580E-01  0.193E-01  0.193E-01  0.193E-01
  13.032  0.581E-01  0.194E-01  0.194E-01  0.194E-01
  13.042  0.581E-01  0.194E-01  0.194E-01  0.194E-01
  13.052  0.581E-01  0.194E-01  0.194E-01  0.194E-01
  13.062  0.581E-01  0.194E-01  0.194E-01  0.194E-01
  13.072  0.581E-01  0.194E-01  0.194E-01  0.194E-01
  13.082  0.581E-01  0.194E-01  0.194E-01  0.194E-01
  13.092  0.581E-01  0.194E-01  0.194E-01  0.194E-01
  13.102  0.582E-01  0.194E-01  0.194E-01  0.194E-01
  13.112  0.583E-01  0.194E-01  0.194E-01  0.194E-01
  13.122  0.585E-01  0.195E-01  0.195E-01  0.195E-01
  13.132  0.587E-01  0.196E-01  0.196E-01  0.196E-01
  13.142  0.589E-01  0.196E-01  0.196E-01  0.196E-01
  13.152  0.592E-01  0.197E-01  0.197E-01  0.197E-01
  13.162  0.594E-01  0.198E-01  0.198E-01  0.198E-01
  13.172  0.597E-01  0.199E-01  0.199E-01  0.199E-01
  13.182  0.600E-01  0.200E-01  0.200E-01  0.200E-01
  13.192  0.602E-01  0.201E-01  0.201E-01  0.201E-01
  13.202  0.605E-01  0.202E-01  0.202E-01  0.202E-01
  13.212  0.607E-01  0.202E-01  0.202E-01  0.202E-01
  13.222  0.610E-01  0.203E-01  0.203E-01  0.203E-01
  13.232  0.614E-01  0.205E-01  0.205E-01  0.205E-01
  13.242  0.618E-01  0.206E-01  0.206E-01  0.206E-01
  13.252  0.623E-01  0.208E-01  0.208E-01  0.208E-01
  13.262  0.629E-01  0.210E-01  0.210E-01  0.210E-01
  13.272  0.636E-01  0.212E-01  0.212E-01  0.212E-01
  13.282  0.645E-01  0.215E-01  0.215E-01  0.215E-01
  13.292  0.656E-01  0.219E-01  0.219E-01  0.219E-01
  13.302  0.668E-01  0.223E-01  0.223E-01  0.223E-01
  13.312  0.682E-01  0.227E-01  0.227E-01  0.227E-01
  13.322  0.697E-01  0.232E-01  0.232E-01  0.232E-01
  13.332  0.714E-01  0.238E-01  0.238E-01  0.238E-01
  13.342  0.733E-01  0.244E-01  0.244E-01  0.244E-01
  13.352  0.752E-01  0.251E-01  0.251E-01  0.251E-01
  13.362  0.772E-01  0.257E-01  0.257E-01  0.257E-01
  13.372  0.793E-01  0.264E-01  0.264E-01  0.264E-01
  13.382  0.814E-01  0.271E-01  0.271E-01  0.271E-01
  13.392  0.836E-01  0.279E-01  0.279E-01  0.279E-01
  13.402  0.858E-01  0.286E-01  0.286E-01  0.286E-01
  13.412  0.879E-01  0.293E-01  0.293E-01  0.293E-01
  13.422  0.901E-01  0.300E-01  0.300E-01  0.300E-01
  13.432  0.921E-01  0.307E-01  0.307E-01  0.307E-01
  13.442  0.941E-01  0.314E-01  0.314E-01  0.314E-01
  13.452  0.960E-01  0.320E-01  0.320E-01  0.320E-01
  13.462  0.977E-01  0.326E-01  0.326E-01  0.326E-01
  13.472  0.994E-01  0.331E-01  0.331E-01  0.331E-01
  13.482  0.101E+00  0.336E-01  0.336E-01  0.336E-01
  13.492  0.102E+00  0.340E-01  0.340E-01  0.340E-01
  13.502  0.103E+00  0.344E-01  0.344E-01  0.344E-01
  13.512  0.104E+00  0.347E-01  0.347E-01  0.347E-01
  13.522  0.105E+00  0.349E-01  0.349E-01  0.349E-01
  13.532  0.105E+00  0.351E-01  0.351E-01  0.351E-01
  13.542  0.106E+00  0.352E-01  0.352E-01  0.352E-01
  13.552  0.106E+00  0.352E-01  0.352E-01  0.352E-01
  13.562  0.106E+00  0.352E-01  0.352E-01  0.352E-01
  13.572  0.106E+00  0.352E-01  0.352E-01  0.352E-01
  13.582  0.105E+00  0.352E-01  0.352E-01  0.352E-01
  13.592  0.105E+00  0.351E-01  0.351E-01  0.351E-01
  13.602  0.105E+00  0.350E-01  0.350E-01  0.350E-01
  13.612  0.105E+00  0.349E-01  0.349E-01  0.349E-01
  13.622  0.104E+00  0.348E-01  0.348E-01  0.348E-01
  13.632  0.104E+00  0.347E-01  0.347E-01  0.347E-01
  13.642  0.104E+00  0.347E-01  0.347E-01  0.347E-01
  13.652  0.104E+00  0.346E-01  0.346E-01  0.346E-01
  13.662  0.104E+00  0.345E-01  0.345E-01  0.345E-01
  13.672  0.104E+00  0.345E-01  0.345E-01  0.345E-01
  13.682  0.103E+00  0.345E-01  0.345E-01  0.345E-01
  13.692  0.103E+00  0.344E-01  0.344E-01  0.344E-01
  13.702  0.103E+00  0.344E-01  0.344E-01  0.344E-01
  13.712  0.103E+00  0.344E-01  0.344E-01  0.344E-01
  13.722  0.103E+00  0.344E-01  0.344E-01  0.344E-01
  13.732  0.103E+00  0.344E-01  0.344E-01  0.344E-01
  13.742  0.103E+00  0.344E-01  0.344E-01  0.344E-01
  13.752  0.103E+00  0.344E-01  0.344E-01  0.344E-01
  13.762  0.103E+00  0.345E-01  0.345E-01  0.345E-01
  13.772  0.103E+00  0.345E-01  0.345E-01  0.345E-01
  13.782  0.104E+00  0.345E-01  0.345E-01  0.345E-01
  13.792  0.104E+00  0.346E-01  0.346E-01  0.346E-01
  13.802  0.104E+00  0.347E-01  0.347E-01  0.347E-01
  13.812  0.104E+00  0.348E-01  0.348E-01  0.348E-01
  13.822  0.105E+00  0.349E-01  0.349E-01  0.349E-01
  13.832  0.105E+00  0.350E-01  0.350E-01  0.350E-01
  13.842  0.105E+00  0.351E-01  0.351E-01  0.351E-01
  13.852  0.106E+00  0.352E-01  0.352E-01  0.352E-01
  13.862  0.106E+00  0.353E-01  0.353E-01  0.353E-01
  13.872  0.106E+00  0.355E-01  0.355E-01  0.355E-01
  13.882  0.107E+00  0.356E-01  0.356E-01  0.356E-01
  13.892  0.107E+00  0.358E-01  0.358E-01  0.358E-01
  13.902  0.108E+00  0.360E-01  0.360E-01  0.360E-01
  13.912  0.109E+00  0.363E-01  0.363E-01  0.363E-01
  13.922  0.110E+00  0.365E-01  0.365E-01  0.365E-01
  13.932  0.111E+00  0.369E-01  0.369E-01  0.369E-01
  13.942  0.112E+00  0.373E-01  0.373E-01  0.373E-01
  13.952  0.113E+00  0.378E-01  0.378E-01  0.378E-01
  13.962  0.115E+00  0.383E-01  0.383E-01  0.383E-01
  13.972  0.117E+00  0.390E-01  0.390E-01  0.390E-01
  13.982  0.119E+00  0.398E-01  0.398E-01  0.398E-01
  13.992  0.122E+00  0.407E-01  0.407E-01  0.407E-01
  14.002  0.125E+00  0.417E-01  0.417E-01  0.417E-01
  14.012  0.129E+00  0.430E-01  0.430E-01  0.430E-01
  14.022  0.133E+00  0.444E-01  0.444E-01  0.444E-01
  14.032  0.138E+00  0.460E-01  0.460E-01  0.460E-01
  14.042  0.143E+00  0.478E-01  0.478E-01  0.478E-01
  14.052  0.150E+00  0.498E-01  0.498E-01  0.498E-01
  14.062  0.156E+00  0.521E-01  0.521E-01  0.521E-01
  14.072  0.164E+00  0.546E-01  0.546E-01  0.546E-01
  14.082  0.172E+00  0.574E-01  0.574E-01  0.574E-01
  14.092  0.181E+00  0.603E-01  0.603E-01  0.603E-01
  14.102  0.190E+00  0.635E-01  0.635E-01  0.635E-01
  14.112  0.200E+00  0.668E-01  0.668E-01  0.668E-01
  14.122  0.211E+00  0.703E-01  0.703E-01  0.703E-01
  14.132  0.222E+00  0.739E-01  0.739E-01  0.739E-01
  14.142  0.233E+00  0.776E-01  0.776E-01  0.776E-01
  14.152  0.244E+00  0.814E-01  0.814E-01  0.814E-01
  14.162  0.255E+00  0.851E-01  0.851E-01  0.851E-01
  14.172  0.266E+00  0.888E-01  0.888E-01  0.888E-01
  14.182  0.277E+00  0.923E-01  0.923E-01  0.923E-01
  14.192  0.287E+00  0.957E-01  0.957E-01  0.957E-01
  14.202  0.297E+00  0.989E-01  0.989E-01  0.989E-01
  14.212  0.306E+00  0.102E+00  0.102E+00  0.102E+00
  14.222  0.313E+00  0.104E+00  0.104E+00  0.104E+00
  14.232  0.320E+00  0.107E+00  0.107E+00  0.107E+00
  14.242  0.326E+00  0.109E+00  0.109E+00  0.109E+00
  14.252  0.330E+00  0.110E+00  0.110E+00  0.110E+00
  14.262  0.332E+00  0.111E+00  0.111E+00  0.111E+00
  14.272  0.333E+00  0.111E+00  0.111E+00  0.111E+00
  14.282  0.333E+00  0.111E+00  0.111E+00  0.111E+00
  14.292  0.331E+00  0.110E+00  0.110E+00  0.110E+00
  14.302  0.327E+00  0.109E+00  0.109E+00  0.109E+00
  14.312  0.321E+00  0.107E+00  0.107E+00  0.107E+00
  14.322  0.313E+00  0.104E+00  0.104E+00  0.104E+00
  14.332  0.304E+00  0.101E+00  0.101E+00  0.101E+00
  14.342  0.294E+00  0.979E-01  0.979E-01  0.979E-01
  14.352  0.282E+00  0.940E-01  0.940E-01  0.940E-01
  14.362  0.269E+00  0.896E-01  0.896E-01  0.896E-01
  14.372  0.255E+00  0.849E-01  0.849E-01  0.849E-01
  14.382  0.240E+00  0.799E-01  0.799E-01  0.799E-01
  14.392  0.224E+00  0.748E-01  0.748E-01  0.748E-01
  14.402  0.209E+00  0.695E-01  0.695E-01  0.695E-01
  14.412  0.193E+00  0.643E-01  0.643E-01  0.643E-01
  14.422  0.177E+00  0.590E-01  0.590E-01  0.590E-01
  14.432  0.162E+00  0.539E-01  0.539E-01  0.539E-01
  14.442  0.147E+00  0.489E-01  0.489E-01  0.489E-01
  14.452  0.133E+00  0.442E-01  0.442E-01  0.442E-01
  14.462  0.119E+00  0.398E-01  0.398E-01  0.398E-01
  14.472  0.107E+00  0.357E-01  0.357E-01  0.357E-01
  14.482  0.959E-01  0.320E-01  0.320E-01  0.320E-01
  14.492  0.856E-01  0.285E-01  0.285E-01  0.285E-01
  14.502  0.765E-01  0.255E-01  0.255E-01  0.255E-01
  14.512  0.684E-01  0.228E-01  0.228E-01  0.228E-01
  14.522  0.614E-01  0.205E-01  0.205E-01  0.205E-01
  14.532  0.552E-01  0.184E-01  0.184E-01  0.184E-01
  14.542  0.500E-01  0.167E-01  0.167E-01  0.167E-01
  14.552  0.456E-01  0.152E-01  0.152E-01  0.152E-01
  14.562  0.420E-01  0.140E-01  0.140E-01  0.140E-01
  14.572  0.389E-01  0.130E-01  0.130E-01  0.130E-01
  14.582  0.364E-01  0.121E-01  0.121E-01  0.121E-01
  14.592  0.344E-01  0.115E-01  0.115E-01  0.115E-01
  14.602  0.328E-01  0.109E-01  0.109E-01  0.109E-01
  14.612  0.315E-01  0.105E-01  0.105E-01  0.105E-01
  14.622  0.305E-01  0.102E-01  0.102E-01  0.102E-01
  14.632  0.297E-01  0.991E-02  0.991E-02  0.991E-02
  14.642  0.291E-01  0.971E-02  0.971E-02  0.971E-02
  14.652  0.287E-01  0.955E-02  0.955E-02  0.955E-02
  14.662  0.283E-01  0.943E-02  0.943E-02  0.943E-02
  14.672  0.280E-01  0.934E-02  0.934E-02  0.934E-02
  14.682  0.278E-01  0.927E-02  0.927E-02  0.927E-02
  14.692  0.276E-01  0.922E-02  0.922E-02  0.922E-02
  14.702  0.275E-01  0.917E-02  0.917E-02  0.917E-02
  14.712  0.274E-01  0.914E-02  0.914E-02  0.914E-02
  14.722  0.273E-01  0.911E-02  0.911E-02  0.911E-02
  14.732  0.272E-01  0.908E-02  0.908E-02  0.908E-02
  14.742  0.272E-01  0.906E-02  0.906E-02  0.906E-02
  14.752  0.271E-01  0.903E-02  0.903E-02  0.903E-02
  14.762  0.270E-01  0.901E-02  0.901E-02  0.901E-02
  14.772  0.270E-01  0.899E-02  0.899E-02  0.899E-02
  14.782  0.269E-01  0.897E-02  0.897E-02  0.897E-02
  14.792  0.268E-01  0.895E-02  0.895E-02  0.895E-02
  14.802  0.268E-01  0.893E-02  0.893E-02  0.893E-02
  14.812  0.267E-01  0.891E-02  0.891E-02  0.891E-02
  14.822  0.267E-01  0.890E-02  0.890E-02  0.890E-02
  14.832  0.267E-01  0.889E-02  0.889E-02  0.889E-02
  14.842  0.266E-01  0.887E-02  0.887E-02  0.887E-02
  14.852  0.266E-01  0.886E-02  0.886E-02  0.886E-02
  14.862  0.265E-01  0.884E-02  0.884E-02  0.884E-02
  14.872  0.265E-01  0.883E-02  0.883E-02  0.883E-02
  14.882  0.264E-01  0.881E-02  0.881E-02  0.881E-02
  14.892  0.264E-01  0.879E-02  0.879E-02  0.879E-02
  14.902  0.263E-01  0.877E-02  0.877E-02  0.877E-02
  14.912  0.262E-01  0.875E-02  0.875E-02  0.875E-02
  14.922  0.262E-01  0.873E-02  0.873E-02  0.873E-02
  14.932  0.261E-01  0.870E-02  0.870E-02  0.870E-02
  14.942  0.260E-01  0.868E-02  0.868E-02  0.868E-02
  14.952  0.260E-01  0.866E-02  0.866E-02  0.866E-02
  14.962  0.259E-01  0.864E-02  0.864E-02  0.864E-02
  14.972  0.259E-01  0.863E-02  0.863E-02  0.863E-02
  14.982  0.258E-01  0.861E-02  0.861E-02  0.861E-02
  14.992  0.258E-01  0.860E-02  0.860E-02  0.860E-02
  15.002  0.258E-01  0.859E-02  0.859E-02  0.859E-02
  15.012  0.257E-01  0.857E-02  0.857E-02  0.857E-02
  15.022  0.257E-01  0.856E-02  0.856E-02  0.856E-02
  15.032  0.256E-01  0.855E-02  0.855E-02  0.855E-02
  15.042  0.256E-01  0.853E-02  0.853E-02  0.853E-02
  15.052  0.255E-01  0.851E-02  0.851E-02  0.851E-02
  15.062  0.255E-01  0.848E-02  0.848E-02  0.848E-02
  15.072  0.254E-01  0.846E-02  0.846E-02  0.846E-02
  15.082  0.253E-01  0.843E-02  0.843E-02  0.843E-02
  15.092  0.252E-01  0.841E-02  0.841E-02  0.841E-02
  15.102  0.252E-01  0.838E-02  0.838E-02  0.838E-02
  15.112  0.251E-01  0.836E-02  0.836E-02  0.836E-02
  15.122  0.250E-01  0.834E-02  0.834E-02  0.834E-02
  15.132  0.250E-01  0.832E-02  0.832E-02  0.832E-02
  15.142  0.249E-01  0.831E-02  0.831E-02  0.831E-02
  15.152  0.249E-01  0.830E-02  0.830E-02  0.830E-02
  15.162  0.249E-01  0.828E-02  0.828E-02  0.828E-02
  15.172  0.248E-01  0.827E-02  0.827E-02  0.827E-02
  15.182  0.248E-01  0.826E-02  0.826E-02  0.826E-02
  15.192  0.247E-01  0.825E-02  0.825E-02  0.825E-02
  15.202  0.247E-01  0.823E-02  0.823E-02  0.823E-02
  15.212  0.246E-01  0.821E-02  0.821E-02  0.821E-02
  15.222  0.246E-01  0.819E-02  0.819E-02  0.819E-02
  15.232  0.245E-01  0.816E-02  0.816E-02  0.816E-02
  15.242  0.244E-01  0.813E-02  0.813E-02  0.813E-02
  15.252  0.243E-01  0.810E-02  0.810E-02  0.810E-02
  15.262  0.242E-01  0.808E-02  0.808E-02  0.808E-02
  15.272  0.241E-01  0.805E-02  0.805E-02  0.805E-02
  15.282  0.241E-01  0.802E-02  0.802E-02  0.802E-02
  15.292  0.240E-01  0.800E-02  0.800E-02  0.800E-02
  15.302  0.240E-01  0.798E-02  0.798E-02  0.798E-02
  15.312  0.239E-01  0.797E-02  0.797E-02  0.797E-02
  15.322  0.239E-01  0.796E-02  0.796E-02  0.796E-02
  15.332  0.238E-01  0.795E-02  0.795E-02  0.795E-02
  15.342  0.238E-01  0.794E-02  0.794E-02  0.794E-02
  15.352  0.238E-01  0.793E-02  0.793E-02  0.793E-02
  15.362  0.238E-01  0.792E-02  0.792E-02  0.792E-02
  15.372  0.237E-01  0.790E-02  0.790E-02  0.790E-02
  15.382  0.236E-01  0.788E-02  0.788E-02  0.788E-02
  15.392  0.236E-01  0.786E-02  0.786E-02  0.786E-02
  15.402  0.235E-01  0.783E-02  0.783E-02  0.783E-02
  15.412  0.234E-01  0.780E-02  0.780E-02  0.780E-02
  15.422  0.233E-01  0.776E-02  0.776E-02  0.776E-02
  15.432  0.232E-01  0.773E-02  0.773E-02  0.773E-02
  15.442  0.231E-01  0.770E-02  0.770E-02  0.770E-02
  15.452  0.230E-01  0.767E-02  0.767E-02  0.767E-02
  15.462  0.229E-01  0.765E-02  0.765E-02  0.765E-02
  15.472  0.229E-01  0.763E-02  0.763E-02  0.763E-02
  15.482  0.228E-01  0.761E-02  0.761E-02  0.761E-02
  15.492  0.228E-01  0.760E-02  0.760E-02  0.760E-02
  15.502  0.228E-01  0.759E-02  0.759E-02  0.759E-02
  15.512  0.228E-01  0.758E-02  0.758E-02  0.758E-02
  15.522  0.227E-01  0.758E-02  0.758E-02  0.758E-02
  15.532  0.227E-01  0.757E-02  0.757E-02  0.757E-02
  15.542  0.227E-01  0.755E-02  0.755E-02  0.755E-02
  15.552  0.226E-01  0.754E-02  0.754E-02  0.754E-02
  15.562  0.225E-01  0.751E-02  0.751E-02  0.751E-02
  15.572  0.225E-01  0.748E-02  0.748E-02  0.748E-02
  15.582  0.224E-01  0.745E-02  0.745E-02  0.745E-02
  15.592  0.222E-01  0.741E-02  0.741E-02  0.741E-02
  15.602  0.221E-01  0.738E-02  0.738E-02  0.738E-02
  15.612  0.220E-01  0.734E-02  0.734E-02  0.734E-02
  15.622  0.219E-01  0.731E-02  0.731E-02  0.731E-02
  15.632  0.218E-01  0.728E-02  0.728E-02  0.728E-02
  15.642  0.218E-01  0.725E-02  0.725E-02  0.725E-02
  15.652  0.217E-01  0.723E-02  0.723E-02  0.723E-02
  15.662  0.217E-01  0.722E-02  0.722E-02  0.722E-02
  15.672  0.216E-01  0.721E-02  0.721E-02  0.721E-02
  15.682  0.216E-01  0.720E-02  0.720E-02  0.720E-02
  15.692  0.216E-01  0.720E-02  0.720E-02  0.720E-02
  15.702  0.216E-01  0.719E-02  0.719E-02  0.719E-02
  15.712  0.216E-01  0.718E-02  0.718E-02  0.718E-02
  15.722  0.215E-01  0.717E-02  0.717E-02  0.717E-02
  15.732  0.214E-01  0.715E-02  0.715E-02  0.715E-02
  15.742  0.214E-01  0.712E-02  0.712E-02  0.712E-02
  15.752  0.213E-01  0.709E-02  0.709E-02  0.709E-02
  15.762  0.212E-01  0.706E-02  0.706E-02  0.706E-02
  15.772  0.210E-01  0.702E-02  0.702E-02  0.702E-02
  15.782  0.209E-01  0.698E-02  0.698E-02  0.698E-02
  15.792  0.208E-01  0.694E-02  0.694E-02  0.694E-02
  15.802  0.207E-01  0.690E-02  0.690E-02  0.690E-02
  15.812  0.206E-01  0.687E-02  0.687E-02  0.687E-02
  15.822  0.205E-01  0.684E-02  0.684E-02  0.684E-02
  15.832  0.205E-01  0.682E-02  0.682E-02  0.682E-02
  15.842  0.204E-01  0.680E-02  0.680E-02  0.680E-02
  15.852  0.204E-01  0.679E-02  0.679E-02  0.679E-02
  15.862  0.204E-01  0.679E-02  0.679E-02  0.679E-02
  15.872  0.203E-01  0.678E-02  0.678E-02  0.678E-02
  15.882  0.203E-01  0.678E-02  0.678E-02  0.678E-02
  15.892  0.203E-01  0.677E-02  0.677E-02  0.677E-02
  15.902  0.203E-01  0.676E-02  0.676E-02  0.676E-02
  15.912  0.202E-01  0.674E-02  0.674E-02  0.674E-02
  15.922  0.201E-01  0.671E-02  0.671E-02  0.671E-02
  15.932  0.200E-01  0.668E-02  0.668E-02  0.668E-02
  15.942  0.199E-01  0.664E-02  0.664E-02  0.664E-02
  15.952  0.198E-01  0.660E-02  0.660E-02  0.660E-02
  15.962  0.197E-01  0.655E-02  0.655E-02  0.655E-02
  15.972  0.195E-01  0.651E-02  0.651E-02  0.651E-02
  15.982  0.194E-01  0.647E-02  0.647E-02  0.647E-02
  15.992  0.193E-01  0.643E-02  0.643E-02  0.643E-02
  16.002  0.192E-01  0.640E-02  0.640E-02  0.640E-02
  16.012  0.191E-01  0.637E-02  0.637E-02  0.637E-02
  16.022  0.191E-01  0.635E-02  0.635E-02  0.635E-02
  16.032  0.190E-01  0.634E-02  0.634E-02  0.634E-02
  16.042  0.190E-01  0.633E-02  0.633E-02  0.633E-02
  16.052  0.190E-01  0.633E-02  0.633E-02  0.633E-02
  16.062  0.190E-01  0.632E-02  0.632E-02  0.632E-02
  16.072  0.189E-01  0.631E-02  0.631E-02  0.631E-02
  16.082  0.189E-01  0.630E-02  0.630E-02  0.630E-02
  16.092  0.189E-01  0.628E-02  0.628E-02  0.628E-02
  16.102  0.188E-01  0.626E-02  0.626E-02  0.626E-02
  16.112  0.187E-01  0.623E-02  0.623E-02  0.623E-02
  16.122  0.186E-01  0.619E-02  0.619E-02  0.619E-02
  16.132  0.184E-01  0.615E-02  0.615E-02  0.615E-02
  16.142  0.183E-01  0.610E-02  0.610E-02  0.610E-02
  16.152  0.182E-01  0.605E-02  0.605E-02  0.605E-02
  16.162  0.180E-01  0.601E-02  0.601E-02  0.601E-02
  16.172  0.179E-01  0.596E-02  0.596E-02  0.596E-02
  16.182  0.178E-01  0.592E-02  0.592E-02  0.592E-02
  16.192  0.177E-01  0.589E-02  0.589E-02  0.589E-02
  16.202  0.176E-01  0.587E-02  0.587E-02  0.587E-02
  16.212  0.175E-01  0.585E-02  0.585E-02  0.585E-02
  16.222  0.175E-01  0.583E-02  0.583E-02  0.583E-02
  16.232  0.175E-01  0.582E-02  0.582E-02  0.582E-02
  16.242  0.174E-01  0.581E-02  0.581E-02  0.581E-02
  16.252  0.174E-01  0.580E-02  0.580E-02  0.580E-02
  16.262  0.174E-01  0.579E-02  0.579E-02  0.579E-02
  16.272  0.173E-01  0.577E-02  0.577E-02  0.577E-02
  16.282  0.172E-01  0.575E-02  0.575E-02  0.575E-02
  16.292  0.172E-01  0.572E-02  0.572E-02  0.572E-02
  16.302  0.170E-01  0.568E-02  0.568E-02  0.568E-02
  16.312  0.169E-01  0.564E-02  0.564E-02  0.564E-02
  16.322  0.168E-01  0.559E-02  0.559E-02  0.559E-02
  16.332  0.166E-01  0.554E-02  0.554E-02  0.554E-02
  16.342  0.165E-01  0.549E-02  0.549E-02  0.549E-02
  16.352  0.163E-01  0.544E-02  0.544E-02  0.544E-02
  16.362  0.162E-01  0.540E-02  0.540E-02  0.540E-02
  16.372  0.161E-01  0.536E-02  0.536E-02  0.536E-02
  16.382  0.160E-01  0.532E-02  0.532E-02  0.532E-02
  16.392  0.159E-01  0.529E-02  0.529E-02  0.529E-02
  16.402  0.158E-01  0.527E-02  0.527E-02  0.527E-02
  16.412  0.157E-01  0.525E-02  0.525E-02  0.525E-02
  16.422  0.157E-01  0.523E-02  0.523E-02  0.523E-02
  16.432  0.156E-01  0.521E-02  0.521E-02  0.521E-02
  16.442  0.156E-01  0.519E-02  0.519E-02  0.519E-02
  16.452  0.155E-01  0.517E-02  0.517E-02  0.517E-02
  16.462  0.154E-01  0.514E-02  0.514E-02  0.514E-02
  16.472  0.153E-01  0.511E-02  0.511E-02  0.511E-02
  16.482  0.152E-01  0.508E-02  0.508E-02  0.508E-02
  16.492  0.151E-01  0.503E-02  0.503E-02  0.503E-02
  16.502  0.150E-01  0.499E-02  0.499E-02  0.499E-02
  16.512  0.148E-01  0.493E-02  0.493E-02  0.493E-02
  16.522  0.146E-01  0.488E-02  0.488E-02  0.488E-02
  16.532  0.145E-01  0.483E-02  0.483E-02  0.483E-02
  16.542  0.143E-01  0.477E-02  0.477E-02  0.477E-02
  16.552  0.142E-01  0.472E-02  0.472E-02  0.472E-02
  16.562  0.140E-01  0.468E-02  0.468E-02  0.468E-02
  16.572  0.139E-01  0.463E-02  0.463E-02  0.463E-02
  16.582  0.138E-01  0.459E-02  0.459E-02  0.459E-02
  16.592  0.137E-01  0.456E-02  0.456E-02  0.456E-02
  16.602  0.136E-01  0.452E-02  0.452E-02  0.452E-02
  16.612  0.135E-01  0.449E-02  0.449E-02  0.449E-02
  16.622  0.134E-01  0.446E-02  0.446E-02  0.446E-02
  16.632  0.133E-01  0.442E-02  0.442E-02  0.442E-02
  16.642  0.132E-01  0.438E-02  0.438E-02  0.438E-02
  16.652  0.130E-01  0.434E-02  0.434E-02  0.434E-02
  16.662  0.129E-01  0.430E-02  0.430E-02  0.430E-02
  16.672  0.127E-01  0.425E-02  0.425E-02  0.425E-02
  16.682  0.126E-01  0.419E-02  0.419E-02  0.419E-02
  16.692  0.124E-01  0.413E-02  0.413E-02  0.413E-02
  16.702  0.122E-01  0.407E-02  0.407E-02  0.407E-02
  16.712  0.120E-01  0.401E-02  0.401E-02  0.401E-02
  16.722  0.118E-01  0.394E-02  0.394E-02  0.394E-02
  16.732  0.116E-01  0.388E-02  0.388E-02  0.388E-02
  16.742  0.114E-01  0.381E-02  0.381E-02  0.381E-02
  16.752  0.112E-01  0.375E-02  0.375E-02  0.375E-02
  16.762  0.111E-01  0.368E-02  0.368E-02  0.368E-02
  16.772  0.109E-01  0.362E-02  0.362E-02  0.362E-02
  16.782  0.107E-01  0.356E-02  0.356E-02  0.356E-02
  16.792  0.105E-01  0.349E-02  0.349E-02  0.349E-02
  16.802  0.103E-01  0.343E-02  0.343E-02  0.343E-02
  16.812  0.101E-01  0.336E-02  0.336E-02  0.336E-02
  16.822  0.988E-02  0.329E-02  0.329E-02  0.329E-02
  16.832  0.966E-02  0.322E-02  0.322E-02  0.322E-02
  16.842  0.943E-02  0.314E-02  0.314E-02  0.314E-02
  16.852  0.918E-02  0.306E-02  0.306E-02  0.306E-02
  16.862  0.892E-02  0.297E-02  0.297E-02  0.297E-02
  16.872  0.864E-02  0.288E-02  0.288E-02  0.288E-02
  16.882  0.834E-02  0.278E-02  0.278E-02  0.278E-02
  16.892  0.804E-02  0.268E-02  0.268E-02  0.268E-02
  16.902  0.772E-02  0.257E-02  0.257E-02  0.257E-02
  16.912  0.739E-02  0.246E-02  0.246E-02  0.246E-02
  16.922  0.705E-02  0.235E-02  0.235E-02  0.235E-02
  16.932  0.670E-02  0.223E-02  0.223E-02  0.223E-02
  16.942  0.634E-02  0.211E-02  0.211E-02  0.211E-02
  16.952  0.598E-02  0.199E-02  0.199E-02  0.199E-02
  16.962  0.562E-02  0.187E-02  0.187E-02  0.187E-02
  16.972  0.525E-02  0.175E-02  0.175E-02  0.175E-02
  16.982  0.488E-02  0.163E-02  0.163E-02  0.163E-02
  16.992  0.452E-02  0.151E-02  0.151E-02  0.151E-02
  17.002  0.416E-02  0.139E-02  0.139E-02  0.139E-02
  17.012  0.380E-02  0.127E-02  0.127E-02  0.127E-02
  17.022  0.346E-02  0.115E-02  0.115E-02  0.115E-02
  17.032  0.312E-02  0.104E-02  0.104E-02  0.104E-02
  17.042  0.280E-02  0.932E-03  0.932E-03  0.932E-03
  17.052  0.249E-02  0.830E-03  0.830E-03  0.830E-03
  17.062  0.220E-02  0.733E-03  0.733E-03  0.733E-03
  17.072  0.193E-02  0.643E-03  0.643E-03  0.643E-03
  17.082  0.168E-02  0.559E-03  0.559E-03  0.559E-03
  17.092  0.145E-02  0.482E-03  0.482E-03  0.482E-03
  17.102  0.124E-02  0.412E-03  0.412E-03  0.412E-03
  17.112  0.105E-02  0.349E-03  0.349E-03  0.349E-03
  17.122  0.881E-03  0.294E-03  0.294E-03  0.294E-03
  17.132  0.733E-03  0.244E-03  0.244E-03  0.244E-03
  17.142  0.605E-03  0.202E-03  0.202E-03  0.202E-03
  17.152  0.495E-03  0.165E-03  0.165E-03  0.165E-03
  17.162  0.401E-03  0.134E-03  0.134E-03  0.134E-03
  17.172  0.322E-03  0.107E-03  0.107E-03  0.107E-03
  17.182  0.256E-03  0.852E-04  0.852E-04  0.852E-04
  17.192  0.201E-03  0.671E-04  0.671E-04  0.671E-04
  17.202  0.157E-03  0.523E-04  0.523E-04  0.523E-04
  17.212  0.121E-03  0.404E-04  0.404E-04  0.404E-04
  17.222  0.927E-04  0.309E-04  0.309E-04  0.309E-04
  17.232  0.702E-04  0.234E-04  0.234E-04  0.234E-04
  17.242  0.527E-04  0.176E-04  0.176E-04  0.176E-04
  17.252  0.391E-04  0.130E-04  0.130E-04  0.130E-04
  17.262  0.288E-04  0.959E-05  0.959E-05  0.959E-05
  17.272  0.210E-04  0.699E-05  0.699E-05  0.699E-05
  17.282  0.151E-04  0.504E-05  0.504E-05  0.504E-05
  17.292  0.108E-04  0.360E-05  0.360E-05  0.360E-05
  17.302  0.763E-05  0.254E-05  0.254E-05  0.254E-05
  17.312  0.534E-05  0.178E-05  0.178E-05  0.178E-05
  17.322  0.370E-05  0.123E-05  0.123E-05  0.123E-05
  17.332  0.254E-05  0.846E-06  0.846E-06  0.846E-06
  17.342  0.172E-05  0.575E-06  0.575E-06  0.575E-06
  17.352  0.116E-05  0.386E-06  0.386E-06  0.386E-06
  17.362  0.772E-06  0.257E-06  0.257E-06  0.257E-06
  17.372  0.509E-06  0.170E-06  0.170E-06  0.170E-06
  17.382  0.332E-06  0.111E-06  0.111E-06  0.111E-06
  17.392  0.214E-06  0.714E-07  0.714E-07  0.714E-07
  17.402  0.137E-06  0.456E-07  0.456E-07  0.456E-07
  17.412  0.866E-07  0.289E-07  0.289E-07  0.289E-07
