# E (eV)  dos(E)    pdos(E)
  -5.898  0.826E-04  0.823E-04
  -5.888  0.129E-03  0.129E-03
  -5.878  0.199E-03  0.199E-03
  -5.868  0.305E-03  0.304E-03
  -5.858  0.461E-03  0.459E-03
  -5.848  0.690E-03  0.688E-03
  -5.838  0.102E-02  0.102E-02
  -5.828  0.150E-02  0.149E-02
  -5.818  0.217E-02  0.217E-02
  -5.808  0.312E-02  0.311E-02
  -5.798  0.443E-02  0.442E-02
  -5.788  0.623E-02  0.621E-02
  -5.778  0.867E-02  0.864E-02
  -5.768  0.119E-01  0.119E-01
  -5.758  0.163E-01  0.162E-01
  -5.748  0.219E-01  0.219E-01
  -5.738  0.293E-01  0.292E-01
  -5.728  0.387E-01  0.385E-01
  -5.718  0.506E-01  0.504E-01
  -5.708  0.654E-01  0.652E-01
  -5.698  0.838E-01  0.835E-01
  -5.688  0.106E+00  0.106E+00
  -5.678  0.133E+00  0.133E+00
  -5.668  0.166E+00  0.165E+00
  -5.658  0.204E+00  0.203E+00
  -5.648  0.248E+00  0.248E+00
  -5.638  0.299E+00  0.298E+00
  -5.628  0.358E+00  0.356E+00
  -5.618  0.423E+00  0.421E+00
  -5.608  0.495E+00  0.493E+00
  -5.598  0.574E+00  0.572E+00
  -5.588  0.659E+00  0.657E+00
  -5.578  0.750E+00  0.747E+00
  -5.568  0.845E+00  0.842E+00
  -5.558  0.944E+00  0.941E+00
  -5.548  0.104E+01  0.104E+01
  -5.538  0.115E+01  0.114E+01
  -5.528  0.124E+01  0.124E+01
  -5.518  0.134E+01  0.134E+01
  -5.508  0.143E+01  0.143E+01
  -5.498  0.152E+01  0.151E+01
  -5.488  0.160E+01  0.159E+01
  -5.478  0.166E+01  0.166E+01
  -5.468  0.172E+01  0.172E+01
  -5.458  0.177E+01  0.176E+01
  -5.448  0.180E+01  0.180E+01
  -5.438  0.183E+01  0.182E+01
  -5.428  0.184E+01  0.184E+01
  -5.418  0.184E+01  0.184E+01
  -5.408  0.184E+01  0.183E+01
  -5.398  0.182E+01  0.181E+01
  -5.388  0.180E+01  0.179E+01
  -5.378  0.176E+01  0.176E+01
  -5.368  0.173E+01  0.172E+01
  -5.358  0.169E+01  0.168E+01
  -5.348  0.164E+01  0.164E+01
  -5.338  0.160E+01  0.159E+01
  -5.328  0.155E+01  0.154E+01
  -5.318  0.150E+01  0.150E+01
  -5.308  0.145E+01  0.145E+01
  -5.298  0.141E+01  0.140E+01
  -5.288  0.136E+01  0.136E+01
  -5.278  0.132E+01  0.132E+01
  -5.268  0.128E+01  0.128E+01
  -5.258  0.125E+01  0.124E+01
  -5.248  0.121E+01  0.121E+01
  -5.238  0.118E+01  0.117E+01
  -5.228  0.115E+01  0.114E+01
  -5.218  0.112E+01  0.112E+01
  -5.208  0.109E+01  0.109E+01
  -5.198  0.107E+01  0.107E+01
  -5.188  0.105E+01  0.104E+01
  -5.178  0.103E+01  0.102E+01
  -5.168  0.101E+01  0.100E+01
  -5.158  0.990E+00  0.986E+00
  -5.148  0.972E+00  0.969E+00
  -5.138  0.956E+00  0.953E+00
  -5.128  0.941E+00  0.938E+00
  -5.118  0.927E+00  0.924E+00
  -5.108  0.914E+00  0.910E+00
  -5.098  0.901E+00  0.897E+00
  -5.088  0.889E+00  0.885E+00
  -5.078  0.877E+00  0.874E+00
  -5.068  0.866E+00  0.862E+00
  -5.058  0.855E+00  0.852E+00
  -5.048  0.845E+00  0.842E+00
  -5.038  0.835E+00  0.832E+00
  -5.028  0.826E+00  0.823E+00
  -5.018  0.817E+00  0.814E+00
  -5.008  0.808E+00  0.805E+00
  -4.998  0.800E+00  0.797E+00
  -4.988  0.792E+00  0.789E+00
  -4.978  0.784E+00  0.781E+00
  -4.968  0.777E+00  0.773E+00
  -4.958  0.769E+00  0.766E+00
  -4.948  0.762E+00  0.759E+00
  -4.938  0.755E+00  0.752E+00
  -4.928  0.749E+00  0.746E+00
  -4.918  0.742E+00  0.739E+00
  -4.908  0.736E+00  0.733E+00
  -4.898  0.730E+00  0.727E+00
  -4.888  0.724E+00  0.721E+00
  -4.878  0.719E+00  0.716E+00
  -4.868  0.713E+00  0.710E+00
  -4.858  0.708E+00  0.705E+00
  -4.848  0.702E+00  0.700E+00
  -4.838  0.697E+00  0.694E+00
  -4.828  0.692E+00  0.689E+00
  -4.818  0.687E+00  0.685E+00
  -4.808  0.683E+00  0.680E+00
  -4.798  0.678E+00  0.675E+00
  -4.788  0.674E+00  0.671E+00
  -4.778  0.669E+00  0.667E+00
  -4.768  0.665E+00  0.662E+00
  -4.758  0.661E+00  0.658E+00
  -4.748  0.657E+00  0.654E+00
  -4.738  0.653E+00  0.650E+00
  -4.728  0.649E+00  0.646E+00
  -4.718  0.645E+00  0.642E+00
  -4.708  0.641E+00  0.639E+00
  -4.698  0.638E+00  0.635E+00
  -4.688  0.634E+00  0.632E+00
  -4.678  0.631E+00  0.628E+00
  -4.668  0.627E+00  0.625E+00
  -4.658  0.624E+00  0.621E+00
  -4.648  0.621E+00  0.618E+00
  -4.638  0.618E+00  0.615E+00
  -4.628  0.615E+00  0.612E+00
  -4.618  0.612E+00  0.609E+00
  -4.608  0.609E+00  0.606E+00
  -4.598  0.606E+00  0.603E+00
  -4.588  0.603E+00  0.600E+00
  -4.578  0.600E+00  0.598E+00
  -4.568  0.597E+00  0.595E+00
  -4.558  0.595E+00  0.592E+00
  -4.548  0.592E+00  0.590E+00
  -4.538  0.590E+00  0.587E+00
  -4.528  0.587E+00  0.585E+00
  -4.518  0.585E+00  0.582E+00
  -4.508  0.582E+00  0.580E+00
  -4.498  0.580E+00  0.577E+00
  -4.488  0.578E+00  0.575E+00
  -4.478  0.575E+00  0.573E+00
  -4.468  0.573E+00  0.571E+00
  -4.458  0.571E+00  0.568E+00
  -4.448  0.569E+00  0.566E+00
  -4.438  0.567E+00  0.564E+00
  -4.428  0.565E+00  0.562E+00
  -4.418  0.563E+00  0.560E+00
  -4.408  0.561E+00  0.558E+00
  -4.398  0.559E+00  0.556E+00
  -4.388  0.557E+00  0.555E+00
  -4.378  0.555E+00  0.553E+00
  -4.368  0.553E+00  0.551E+00
  -4.358  0.552E+00  0.549E+00
  -4.348  0.550E+00  0.548E+00
  -4.338  0.548E+00  0.546E+00
  -4.328  0.547E+00  0.544E+00
  -4.318  0.545E+00  0.543E+00
  -4.308  0.544E+00  0.541E+00
  -4.298  0.542E+00  0.540E+00
  -4.288  0.541E+00  0.538E+00
  -4.278  0.539E+00  0.537E+00
  -4.268  0.538E+00  0.535E+00
  -4.258  0.536E+00  0.534E+00
  -4.248  0.535E+00  0.533E+00
  -4.238  0.534E+00  0.531E+00
  -4.228  0.533E+00  0.530E+00
  -4.218  0.531E+00  0.529E+00
  -4.208  0.530E+00  0.528E+00
  -4.198  0.529E+00  0.527E+00
  -4.188  0.528E+00  0.526E+00
  -4.178  0.527E+00  0.524E+00
  -4.168  0.526E+00  0.523E+00
  -4.158  0.525E+00  0.522E+00
  -4.148  0.524E+00  0.521E+00
  -4.138  0.523E+00  0.520E+00
  -4.128  0.522E+00  0.520E+00
  -4.118  0.521E+00  0.519E+00
  -4.108  0.520E+00  0.518E+00
  -4.098  0.519E+00  0.517E+00
  -4.088  0.519E+00  0.516E+00
  -4.078  0.518E+00  0.516E+00
  -4.068  0.517E+00  0.515E+00
  -4.058  0.516E+00  0.514E+00
  -4.048  0.516E+00  0.514E+00
  -4.038  0.515E+00  0.513E+00
  -4.028  0.515E+00  0.512E+00
  -4.018  0.514E+00  0.512E+00
  -4.008  0.514E+00  0.511E+00
  -3.998  0.513E+00  0.511E+00
  -3.988  0.513E+00  0.511E+00
  -3.978  0.512E+00  0.510E+00
  -3.968  0.512E+00  0.510E+00
  -3.958  0.512E+00  0.510E+00
  -3.948  0.511E+00  0.509E+00
  -3.938  0.511E+00  0.509E+00
  -3.928  0.511E+00  0.509E+00
  -3.918  0.511E+00  0.509E+00
  -3.908  0.511E+00  0.509E+00
  -3.898  0.511E+00  0.509E+00
  -3.888  0.511E+00  0.509E+00
  -3.878  0.511E+00  0.509E+00
  -3.868  0.511E+00  0.509E+00
  -3.858  0.511E+00  0.509E+00
  -3.848  0.511E+00  0.509E+00
  -3.838  0.512E+00  0.509E+00
  -3.828  0.512E+00  0.510E+00
  -3.818  0.512E+00  0.510E+00
  -3.808  0.513E+00  0.511E+00
  -3.798  0.513E+00  0.511E+00
  -3.788  0.514E+00  0.512E+00
  -3.778  0.514E+00  0.512E+00
  -3.768  0.515E+00  0.513E+00
  -3.758  0.516E+00  0.514E+00
  -3.748  0.517E+00  0.515E+00
  -3.738  0.518E+00  0.515E+00
  -3.728  0.519E+00  0.516E+00
  -3.718  0.520E+00  0.517E+00
  -3.708  0.521E+00  0.519E+00
  -3.698  0.522E+00  0.520E+00
  -3.688  0.523E+00  0.521E+00
  -3.678  0.525E+00  0.522E+00
  -3.668  0.526E+00  0.524E+00
  -3.658  0.528E+00  0.526E+00
  -3.648  0.530E+00  0.527E+00
  -3.638  0.531E+00  0.529E+00
  -3.628  0.533E+00  0.531E+00
  -3.618  0.535E+00  0.533E+00
  -3.608  0.538E+00  0.535E+00
  -3.598  0.540E+00  0.538E+00
  -3.588  0.543E+00  0.540E+00
  -3.578  0.545E+00  0.543E+00
  -3.568  0.548E+00  0.546E+00
  -3.558  0.551E+00  0.549E+00
  -3.548  0.555E+00  0.553E+00
  -3.538  0.558E+00  0.556E+00
  -3.528  0.562E+00  0.560E+00
  -3.518  0.566E+00  0.564E+00
  -3.508  0.571E+00  0.569E+00
  -3.498  0.576E+00  0.573E+00
  -3.488  0.581E+00  0.579E+00
  -3.478  0.586E+00  0.584E+00
  -3.468  0.593E+00  0.590E+00
  -3.458  0.599E+00  0.597E+00
  -3.448  0.607E+00  0.604E+00
  -3.438  0.615E+00  0.612E+00
  -3.428  0.623E+00  0.621E+00
  -3.418  0.633E+00  0.630E+00
  -3.408  0.643E+00  0.641E+00
  -3.398  0.655E+00  0.652E+00
  -3.388  0.667E+00  0.665E+00
  -3.378  0.681E+00  0.678E+00
  -3.368  0.696E+00  0.693E+00
  -3.358  0.712E+00  0.709E+00
  -3.348  0.729E+00  0.726E+00
  -3.338  0.747E+00  0.744E+00
  -3.328  0.766E+00  0.764E+00
  -3.318  0.787E+00  0.784E+00
  -3.308  0.807E+00  0.805E+00
  -3.298  0.829E+00  0.826E+00
  -3.288  0.850E+00  0.847E+00
  -3.278  0.870E+00  0.867E+00
  -3.268  0.890E+00  0.887E+00
  -3.258  0.908E+00  0.905E+00
  -3.248  0.924E+00  0.921E+00
  -3.238  0.938E+00  0.935E+00
  -3.228  0.948E+00  0.945E+00
  -3.218  0.954E+00  0.951E+00
  -3.208  0.955E+00  0.952E+00
  -3.198  0.952E+00  0.948E+00
  -3.188  0.943E+00  0.939E+00
  -3.178  0.928E+00  0.925E+00
  -3.168  0.908E+00  0.905E+00
  -3.158  0.882E+00  0.879E+00
  -3.148  0.851E+00  0.848E+00
  -3.138  0.814E+00  0.812E+00
  -3.128  0.774E+00  0.771E+00
  -3.118  0.729E+00  0.727E+00
  -3.108  0.681E+00  0.679E+00
  -3.098  0.631E+00  0.629E+00
  -3.088  0.580E+00  0.578E+00
  -3.078  0.528E+00  0.526E+00
  -3.068  0.476E+00  0.475E+00
  -3.058  0.426E+00  0.425E+00
  -3.048  0.377E+00  0.376E+00
  -3.038  0.331E+00  0.330E+00
  -3.028  0.288E+00  0.287E+00
  -3.018  0.248E+00  0.247E+00
  -3.008  0.211E+00  0.211E+00
  -2.998  0.179E+00  0.178E+00
  -2.988  0.149E+00  0.149E+00
  -2.978  0.124E+00  0.123E+00
  -2.968  0.101E+00  0.101E+00
  -2.958  0.823E-01  0.820E-01
  -2.948  0.661E-01  0.659E-01
  -2.938  0.526E-01  0.524E-01
  -2.928  0.414E-01  0.413E-01
  -2.918  0.323E-01  0.322E-01
  -2.908  0.249E-01  0.248E-01
  -2.898  0.190E-01  0.189E-01
  -2.888  0.144E-01  0.143E-01
  -2.878  0.107E-01  0.107E-01
  -2.868  0.795E-02  0.793E-02
  -2.858  0.583E-02  0.581E-02
  -2.848  0.422E-02  0.421E-02
  -2.838  0.303E-02  0.302E-02
  -2.828  0.215E-02  0.215E-02
  -2.818  0.151E-02  0.151E-02
  -2.808  0.105E-02  0.105E-02
  -2.798  0.724E-03  0.721E-03
  -2.788  0.493E-03  0.491E-03
  -2.778  0.332E-03  0.331E-03
  -2.768  0.221E-03  0.221E-03
  -2.758  0.146E-03  0.146E-03
  -2.748  0.953E-04  0.950E-04
  -2.738  0.616E-04  0.614E-04
  -2.728  0.393E-04  0.392E-04
  -2.718  0.249E-04  0.248E-04
  -2.708  0.156E-04  0.155E-04
  -2.698  0.964E-05  0.961E-05
  -2.688  0.591E-05  0.589E-05
  -2.678  0.358E-05  0.357E-05
  -2.668  0.215E-05  0.214E-05
  -2.658  0.127E-05  0.127E-05
  -2.648  0.748E-06  0.745E-06
  -2.638  0.434E-06  0.433E-06
  -2.628  0.250E-06  0.249E-06
  -2.618  0.142E-06  0.142E-06
  -2.608  0.799E-07  0.796E-07
  -2.598  0.445E-07  0.443E-07
  -2.588  0.245E-07  0.244E-07
  -2.578  0.133E-07  0.133E-07
  -2.568  0.719E-08  0.717E-08
  -2.558  0.383E-08  0.382E-08
  -2.548  0.202E-08  0.202E-08
  -2.538  0.106E-08  0.105E-08
  -2.528  0.545E-09  0.544E-09
  -2.518  0.279E-09  0.278E-09
  -2.508  0.141E-09  0.140E-09
  -2.498  0.705E-10  0.703E-10
  -2.488  0.345E-10  0.344E-10
  -2.478  0.169E-10  0.168E-10
  -2.468  0.743E-11  0.741E-11
  -2.458  0.357E-11  0.356E-11
  -2.448  0.104E-11  0.104E-11
  -2.438  0.000E+00  0.000E+00
  -2.428  0.000E+00  0.000E+00
  -2.418  0.000E+00  0.000E+00
  -2.408  0.000E+00  0.000E+00
  -2.398  0.000E+00  0.000E+00
  -2.388  0.000E+00  0.000E+00
  -2.378  0.000E+00  0.000E+00
  -2.368  0.000E+00  0.000E+00
  -2.358  0.000E+00  0.000E+00
  -2.348  0.000E+00  0.000E+00
  -2.338  0.000E+00  0.000E+00
  -2.328  0.000E+00  0.000E+00
  -2.318  0.000E+00  0.000E+00
  -2.308  0.000E+00  0.000E+00
  -2.298  0.000E+00  0.000E+00
  -2.288  0.000E+00  0.000E+00
  -2.278  0.000E+00  0.000E+00
  -2.268  0.000E+00  0.000E+00
  -2.258  0.000E+00  0.000E+00
  -2.248  0.000E+00  0.000E+00
  -2.238  0.000E+00  0.000E+00
  -2.228  0.000E+00  0.000E+00
  -2.218  0.000E+00  0.000E+00
  -2.208  0.000E+00  0.000E+00
  -2.198  0.000E+00  0.000E+00
  -2.188  0.000E+00  0.000E+00
  -2.178  0.000E+00  0.000E+00
  -2.168  0.000E+00  0.000E+00
  -2.158  0.000E+00  0.000E+00
  -2.148  0.000E+00  0.000E+00
  -2.138  0.000E+00  0.000E+00
  -2.128  0.000E+00  0.000E+00
  -2.118  0.000E+00  0.000E+00
  -2.108  0.000E+00  0.000E+00
  -2.098  0.000E+00  0.000E+00
  -2.088  0.000E+00  0.000E+00
  -2.078  0.000E+00  0.000E+00
  -2.068  0.000E+00  0.000E+00
  -2.058  0.000E+00  0.000E+00
  -2.048  0.000E+00  0.000E+00
  -2.038  0.000E+00  0.000E+00
  -2.028  0.000E+00  0.000E+00
  -2.018  0.000E+00  0.000E+00
  -2.008  0.000E+00  0.000E+00
  -1.998  0.000E+00  0.000E+00
  -1.988  0.000E+00  0.000E+00
  -1.978  0.000E+00  0.000E+00
  -1.968  0.000E+00  0.000E+00
  -1.958  0.000E+00  0.000E+00
  -1.948  0.000E+00  0.000E+00
  -1.938  0.000E+00  0.000E+00
  -1.928  0.000E+00  0.000E+00
  -1.918  0.000E+00  0.000E+00
  -1.908  0.000E+00  0.000E+00
  -1.898  0.000E+00  0.000E+00
  -1.888  0.000E+00  0.000E+00
  -1.878  0.000E+00  0.000E+00
  -1.868  0.000E+00  0.000E+00
  -1.858  0.000E+00  0.000E+00
  -1.848  0.000E+00  0.000E+00
  -1.838  0.000E+00  0.000E+00
  -1.828  0.000E+00  0.000E+00
  -1.818  0.000E+00  0.000E+00
  -1.808  0.000E+00  0.000E+00
  -1.798  0.000E+00  0.000E+00
  -1.788  0.000E+00  0.000E+00
  -1.778  0.000E+00  0.000E+00
  -1.768  0.000E+00  0.000E+00
  -1.758  0.000E+00  0.000E+00
  -1.748  0.000E+00  0.000E+00
  -1.738  0.000E+00  0.000E+00
  -1.728  0.000E+00  0.000E+00
  -1.718  0.000E+00  0.000E+00
  -1.708  0.000E+00  0.000E+00
  -1.698  0.000E+00  0.000E+00
  -1.688  0.000E+00  0.000E+00
  -1.678  0.000E+00  0.000E+00
  -1.668  0.000E+00  0.000E+00
  -1.658  0.000E+00  0.000E+00
  -1.648  0.000E+00  0.000E+00
  -1.638  0.000E+00  0.000E+00
  -1.628  0.000E+00  0.000E+00
  -1.618  0.000E+00  0.000E+00
  -1.608  0.000E+00  0.000E+00
  -1.598  0.000E+00  0.000E+00
  -1.588  0.000E+00  0.000E+00
  -1.578  0.000E+00  0.000E+00
  -1.568  0.000E+00  0.000E+00
  -1.558  0.000E+00  0.000E+00
  -1.548  0.000E+00  0.000E+00
  -1.538  0.000E+00  0.000E+00
  -1.528  0.000E+00  0.000E+00
  -1.518  0.000E+00  0.000E+00
  -1.508  0.000E+00  0.000E+00
  -1.498  0.000E+00  0.000E+00
  -1.488  0.000E+00  0.000E+00
  -1.478  0.000E+00  0.000E+00
  -1.468  0.000E+00  0.000E+00
  -1.458  0.000E+00  0.000E+00
  -1.448  0.000E+00  0.000E+00
  -1.438  0.000E+00  0.000E+00
  -1.428  0.000E+00  0.000E+00
  -1.418  0.000E+00  0.000E+00
  -1.408  0.000E+00  0.000E+00
  -1.398  0.000E+00  0.000E+00
  -1.388  0.000E+00  0.000E+00
  -1.378  0.000E+00  0.000E+00
  -1.368  0.000E+00  0.000E+00
  -1.358  0.000E+00  0.000E+00
  -1.348  0.000E+00  0.000E+00
  -1.338  0.000E+00  0.000E+00
  -1.328  0.000E+00  0.000E+00
  -1.318  0.000E+00  0.000E+00
  -1.308  0.000E+00  0.000E+00
  -1.298  0.000E+00  0.000E+00
  -1.288  0.000E+00  0.000E+00
  -1.278  0.000E+00  0.000E+00
  -1.268  0.000E+00  0.000E+00
  -1.258  0.000E+00  0.000E+00
  -1.248  0.000E+00  0.000E+00
  -1.238  0.000E+00  0.000E+00
  -1.228  0.000E+00  0.000E+00
  -1.218  0.000E+00  0.000E+00
  -1.208  0.000E+00  0.000E+00
  -1.198  0.139E-11  0.137E-11
  -1.188  0.443E-11  0.437E-11
  -1.178  0.919E-11  0.907E-11
  -1.168  0.198E-10  0.196E-10
  -1.158  0.403E-10  0.398E-10
  -1.148  0.811E-10  0.801E-10
  -1.138  0.161E-09  0.159E-09
  -1.128  0.319E-09  0.315E-09
  -1.118  0.621E-09  0.613E-09
  -1.108  0.120E-08  0.118E-08
  -1.098  0.228E-08  0.225E-08
  -1.088  0.430E-08  0.425E-08
  -1.078  0.803E-08  0.793E-08
  -1.068  0.148E-07  0.147E-07
  -1.058  0.271E-07  0.268E-07
  -1.048  0.490E-07  0.484E-07
  -1.038  0.876E-07  0.865E-07
  -1.028  0.155E-06  0.153E-06
  -1.018  0.272E-06  0.268E-06
  -1.008  0.470E-06  0.464E-06
  -0.998  0.806E-06  0.796E-06
  -0.988  0.137E-05  0.135E-05
  -0.978  0.229E-05  0.226E-05
  -0.968  0.381E-05  0.376E-05
  -0.958  0.625E-05  0.617E-05
  -0.948  0.102E-04  0.100E-04
  -0.938  0.163E-04  0.161E-04
  -0.928  0.260E-04  0.257E-04
  -0.918  0.409E-04  0.404E-04
  -0.908  0.637E-04  0.629E-04
  -0.898  0.982E-04  0.969E-04
  -0.888  0.150E-03  0.148E-03
  -0.878  0.226E-03  0.223E-03
  -0.868  0.337E-03  0.333E-03
  -0.858  0.498E-03  0.492E-03
  -0.848  0.728E-03  0.719E-03
  -0.838  0.105E-02  0.104E-02
  -0.828  0.151E-02  0.149E-02
  -0.818  0.214E-02  0.211E-02
  -0.808  0.299E-02  0.296E-02
  -0.798  0.415E-02  0.410E-02
  -0.788  0.570E-02  0.563E-02
  -0.778  0.775E-02  0.765E-02
  -0.768  0.104E-01  0.103E-01
  -0.758  0.139E-01  0.137E-01
  -0.748  0.183E-01  0.180E-01
  -0.738  0.238E-01  0.235E-01
  -0.728  0.307E-01  0.303E-01
  -0.718  0.392E-01  0.387E-01
  -0.708  0.496E-01  0.490E-01
  -0.698  0.620E-01  0.613E-01
  -0.688  0.768E-01  0.759E-01
  -0.678  0.942E-01  0.930E-01
  -0.668  0.114E+00  0.113E+00
  -0.658  0.137E+00  0.136E+00
  -0.648  0.164E+00  0.162E+00
  -0.638  0.193E+00  0.190E+00
  -0.628  0.225E+00  0.222E+00
  -0.618  0.260E+00  0.257E+00
  -0.608  0.298E+00  0.294E+00
  -0.598  0.337E+00  0.333E+00
  -0.588  0.379E+00  0.374E+00
  -0.578  0.422E+00  0.417E+00
  -0.568  0.465E+00  0.459E+00
  -0.558  0.508E+00  0.502E+00
  -0.548  0.551E+00  0.544E+00
  -0.538  0.591E+00  0.584E+00
  -0.528  0.629E+00  0.622E+00
  -0.518  0.665E+00  0.656E+00
  -0.508  0.696E+00  0.687E+00
  -0.498  0.723E+00  0.714E+00
  -0.488  0.746E+00  0.737E+00
  -0.478  0.764E+00  0.755E+00
  -0.468  0.777E+00  0.768E+00
  -0.458  0.785E+00  0.776E+00
  -0.448  0.789E+00  0.779E+00
  -0.438  0.788E+00  0.778E+00
  -0.428  0.782E+00  0.773E+00
  -0.418  0.774E+00  0.764E+00
  -0.408  0.762E+00  0.752E+00
  -0.398  0.747E+00  0.738E+00
  -0.388  0.730E+00  0.721E+00
  -0.378  0.712E+00  0.703E+00
  -0.368  0.693E+00  0.684E+00
  -0.358  0.673E+00  0.665E+00
  -0.348  0.653E+00  0.645E+00
  -0.338  0.633E+00  0.626E+00
  -0.328  0.614E+00  0.607E+00
  -0.318  0.595E+00  0.588E+00
  -0.308  0.578E+00  0.571E+00
  -0.298  0.561E+00  0.554E+00
  -0.288  0.545E+00  0.539E+00
  -0.278  0.531E+00  0.524E+00
  -0.268  0.517E+00  0.511E+00
  -0.258  0.505E+00  0.499E+00
  -0.248  0.493E+00  0.487E+00
  -0.238  0.482E+00  0.477E+00
  -0.228  0.473E+00  0.467E+00
  -0.218  0.464E+00  0.458E+00
  -0.208  0.455E+00  0.450E+00
  -0.198  0.447E+00  0.442E+00
  -0.188  0.440E+00  0.435E+00
  -0.178  0.434E+00  0.428E+00
  -0.168  0.427E+00  0.422E+00
  -0.158  0.421E+00  0.417E+00
  -0.148  0.416E+00  0.411E+00
  -0.138  0.411E+00  0.406E+00
  -0.128  0.406E+00  0.401E+00
  -0.118  0.401E+00  0.397E+00
  -0.108  0.397E+00  0.392E+00
  -0.098  0.393E+00  0.388E+00
  -0.088  0.389E+00  0.384E+00
  -0.078  0.385E+00  0.381E+00
  -0.068  0.381E+00  0.377E+00
  -0.058  0.378E+00  0.374E+00
  -0.048  0.375E+00  0.370E+00
  -0.038  0.372E+00  0.367E+00
  -0.028  0.368E+00  0.364E+00
  -0.018  0.365E+00  0.361E+00
  -0.008  0.363E+00  0.358E+00
   0.002  0.360E+00  0.356E+00
   0.012  0.357E+00  0.353E+00
   0.022  0.355E+00  0.351E+00
   0.032  0.352E+00  0.348E+00
   0.042  0.350E+00  0.346E+00
   0.052  0.348E+00  0.343E+00
   0.062  0.345E+00  0.341E+00
   0.072  0.343E+00  0.339E+00
   0.082  0.341E+00  0.337E+00
   0.092  0.339E+00  0.335E+00
   0.102  0.337E+00  0.333E+00
   0.112  0.335E+00  0.331E+00
   0.122  0.333E+00  0.329E+00
   0.132  0.331E+00  0.327E+00
   0.142  0.329E+00  0.326E+00
   0.152  0.328E+00  0.324E+00
   0.162  0.326E+00  0.322E+00
   0.172  0.324E+00  0.321E+00
   0.182  0.323E+00  0.319E+00
   0.192  0.321E+00  0.318E+00
   0.202  0.320E+00  0.316E+00
   0.212  0.318E+00  0.315E+00
   0.222  0.317E+00  0.313E+00
   0.232  0.315E+00  0.312E+00
   0.242  0.314E+00  0.310E+00
   0.252  0.312E+00  0.309E+00
   0.262  0.311E+00  0.308E+00
   0.272  0.310E+00  0.306E+00
   0.282  0.309E+00  0.305E+00
   0.292  0.307E+00  0.304E+00
   0.302  0.306E+00  0.303E+00
   0.312  0.305E+00  0.301E+00
   0.322  0.304E+00  0.300E+00
   0.332  0.303E+00  0.299E+00
   0.342  0.301E+00  0.298E+00
   0.352  0.300E+00  0.297E+00
   0.362  0.299E+00  0.296E+00
   0.372  0.298E+00  0.295E+00
   0.382  0.297E+00  0.294E+00
   0.392  0.296E+00  0.293E+00
   0.402  0.295E+00  0.292E+00
   0.412  0.294E+00  0.291E+00
   0.422  0.293E+00  0.290E+00
   0.432  0.292E+00  0.289E+00
   0.442  0.291E+00  0.288E+00
   0.452  0.290E+00  0.287E+00
   0.462  0.289E+00  0.286E+00
   0.472  0.288E+00  0.285E+00
   0.482  0.288E+00  0.284E+00
   0.492  0.287E+00  0.283E+00
   0.502  0.286E+00  0.283E+00
   0.512  0.285E+00  0.282E+00
   0.522  0.284E+00  0.281E+00
   0.532  0.283E+00  0.280E+00
   0.542  0.282E+00  0.279E+00
   0.552  0.282E+00  0.279E+00
   0.562  0.281E+00  0.278E+00
   0.572  0.280E+00  0.277E+00
   0.582  0.280E+00  0.276E+00
   0.592  0.279E+00  0.276E+00
   0.602  0.278E+00  0.275E+00
   0.612  0.277E+00  0.274E+00
   0.622  0.277E+00  0.274E+00
   0.632  0.276E+00  0.273E+00
   0.642  0.275E+00  0.272E+00
   0.652  0.275E+00  0.271E+00
   0.662  0.274E+00  0.271E+00
   0.672  0.273E+00  0.270E+00
   0.682  0.272E+00  0.269E+00
   0.692  0.272E+00  0.269E+00
   0.702  0.271E+00  0.268E+00
   0.712  0.271E+00  0.268E+00
   0.722  0.270E+00  0.267E+00
   0.732  0.269E+00  0.266E+00
   0.742  0.269E+00  0.266E+00
   0.752  0.268E+00  0.265E+00
   0.762  0.268E+00  0.265E+00
   0.772  0.267E+00  0.264E+00
   0.782  0.267E+00  0.264E+00
   0.792  0.266E+00  0.263E+00
   0.802  0.265E+00  0.262E+00
   0.812  0.265E+00  0.262E+00
   0.822  0.264E+00  0.261E+00
   0.832  0.264E+00  0.261E+00
   0.842  0.263E+00  0.260E+00
   0.852  0.263E+00  0.260E+00
   0.862  0.262E+00  0.259E+00
   0.872  0.262E+00  0.259E+00
   0.882  0.261E+00  0.258E+00
   0.892  0.261E+00  0.258E+00
   0.902  0.260E+00  0.257E+00
   0.912  0.260E+00  0.257E+00
   0.922  0.259E+00  0.257E+00
   0.932  0.259E+00  0.256E+00
   0.942  0.258E+00  0.256E+00
   0.952  0.258E+00  0.255E+00
   0.962  0.257E+00  0.254E+00
   0.972  0.257E+00  0.254E+00
   0.982  0.256E+00  0.253E+00
   0.992  0.256E+00  0.253E+00
   1.002  0.255E+00  0.252E+00
   1.012  0.255E+00  0.252E+00
   1.022  0.254E+00  0.252E+00
   1.032  0.254E+00  0.251E+00
   1.042  0.254E+00  0.251E+00
   1.052  0.254E+00  0.251E+00
   1.062  0.253E+00  0.250E+00
   1.072  0.253E+00  0.250E+00
   1.082  0.253E+00  0.250E+00
   1.092  0.252E+00  0.249E+00
   1.102  0.252E+00  0.249E+00
   1.112  0.251E+00  0.248E+00
   1.122  0.250E+00  0.248E+00
   1.132  0.250E+00  0.247E+00
   1.142  0.249E+00  0.247E+00
   1.152  0.249E+00  0.246E+00
   1.162  0.249E+00  0.246E+00
   1.172  0.248E+00  0.245E+00
   1.182  0.248E+00  0.245E+00
   1.192  0.248E+00  0.245E+00
   1.202  0.248E+00  0.245E+00
   1.212  0.247E+00  0.245E+00
   1.222  0.247E+00  0.244E+00
   1.232  0.247E+00  0.244E+00
   1.242  0.247E+00  0.244E+00
   1.252  0.246E+00  0.243E+00
   1.262  0.246E+00  0.243E+00
   1.272  0.245E+00  0.242E+00
   1.282  0.245E+00  0.242E+00
   1.292  0.244E+00  0.241E+00
   1.302  0.244E+00  0.241E+00
   1.312  0.243E+00  0.240E+00
   1.322  0.243E+00  0.240E+00
   1.332  0.243E+00  0.240E+00
   1.342  0.242E+00  0.239E+00
   1.352  0.242E+00  0.239E+00
   1.362  0.242E+00  0.239E+00
   1.372  0.242E+00  0.239E+00
   1.382  0.242E+00  0.239E+00
   1.392  0.242E+00  0.239E+00
   1.402  0.242E+00  0.239E+00
   1.412  0.241E+00  0.238E+00
   1.422  0.241E+00  0.238E+00
   1.432  0.240E+00  0.238E+00
   1.442  0.240E+00  0.237E+00
   1.452  0.239E+00  0.237E+00
   1.462  0.239E+00  0.236E+00
   1.472  0.238E+00  0.235E+00
   1.482  0.238E+00  0.235E+00
   1.492  0.237E+00  0.235E+00
   1.502  0.237E+00  0.234E+00
   1.512  0.237E+00  0.234E+00
   1.522  0.237E+00  0.234E+00
   1.532  0.237E+00  0.234E+00
   1.542  0.237E+00  0.234E+00
   1.552  0.237E+00  0.234E+00
   1.562  0.237E+00  0.234E+00
   1.572  0.237E+00  0.234E+00
   1.582  0.237E+00  0.234E+00
   1.592  0.236E+00  0.233E+00
   1.602  0.236E+00  0.233E+00
   1.612  0.235E+00  0.232E+00
   1.622  0.235E+00  0.232E+00
   1.632  0.234E+00  0.231E+00
   1.642  0.234E+00  0.231E+00
   1.652  0.233E+00  0.230E+00
   1.662  0.233E+00  0.230E+00
   1.672  0.233E+00  0.230E+00
   1.682  0.233E+00  0.230E+00
   1.692  0.233E+00  0.230E+00
   1.702  0.233E+00  0.230E+00
   1.712  0.233E+00  0.230E+00
   1.722  0.233E+00  0.230E+00
   1.732  0.233E+00  0.230E+00
   1.742  0.233E+00  0.230E+00
   1.752  0.233E+00  0.230E+00
   1.762  0.232E+00  0.229E+00
   1.772  0.232E+00  0.229E+00
   1.782  0.231E+00  0.228E+00
   1.792  0.231E+00  0.228E+00
   1.802  0.230E+00  0.227E+00
   1.812  0.229E+00  0.227E+00
   1.822  0.229E+00  0.226E+00
   1.832  0.229E+00  0.226E+00
   1.842  0.228E+00  0.226E+00
   1.852  0.228E+00  0.226E+00
   1.862  0.228E+00  0.226E+00
   1.872  0.229E+00  0.226E+00
   1.882  0.229E+00  0.226E+00
   1.892  0.229E+00  0.226E+00
   1.902  0.229E+00  0.226E+00
   1.912  0.229E+00  0.226E+00
   1.922  0.229E+00  0.226E+00
   1.932  0.229E+00  0.226E+00
   1.942  0.228E+00  0.226E+00
   1.952  0.228E+00  0.225E+00
   1.962  0.227E+00  0.224E+00
   1.972  0.227E+00  0.224E+00
   1.982  0.226E+00  0.223E+00
   1.992  0.225E+00  0.223E+00
   2.002  0.225E+00  0.222E+00
   2.012  0.225E+00  0.222E+00
   2.022  0.225E+00  0.222E+00
   2.032  0.225E+00  0.222E+00
   2.042  0.225E+00  0.222E+00
   2.052  0.225E+00  0.222E+00
   2.062  0.225E+00  0.223E+00
   2.072  0.226E+00  0.223E+00
   2.082  0.226E+00  0.223E+00
   2.092  0.226E+00  0.223E+00
   2.102  0.226E+00  0.223E+00
   2.112  0.225E+00  0.223E+00
   2.122  0.225E+00  0.222E+00
   2.132  0.224E+00  0.222E+00
   2.142  0.224E+00  0.221E+00
   2.152  0.223E+00  0.220E+00
   2.162  0.222E+00  0.220E+00
   2.172  0.222E+00  0.219E+00
   2.182  0.221E+00  0.219E+00
   2.192  0.221E+00  0.218E+00
   2.202  0.221E+00  0.218E+00
   2.212  0.221E+00  0.218E+00
   2.222  0.221E+00  0.219E+00
   2.232  0.222E+00  0.219E+00
   2.242  0.222E+00  0.219E+00
   2.252  0.223E+00  0.220E+00
   2.262  0.223E+00  0.220E+00
   2.272  0.223E+00  0.220E+00
   2.282  0.223E+00  0.220E+00
   2.292  0.223E+00  0.220E+00
   2.302  0.222E+00  0.219E+00
   2.312  0.221E+00  0.219E+00
   2.322  0.221E+00  0.218E+00
   2.332  0.220E+00  0.217E+00
   2.342  0.219E+00  0.216E+00
   2.352  0.219E+00  0.216E+00
   2.362  0.218E+00  0.215E+00
   2.372  0.218E+00  0.215E+00
   2.382  0.218E+00  0.215E+00
   2.392  0.218E+00  0.215E+00
   2.402  0.218E+00  0.216E+00
   2.412  0.219E+00  0.216E+00
   2.422  0.219E+00  0.216E+00
   2.432  0.220E+00  0.217E+00
   2.442  0.220E+00  0.217E+00
   2.452  0.220E+00  0.217E+00
   2.462  0.220E+00  0.217E+00
   2.472  0.220E+00  0.217E+00
   2.482  0.220E+00  0.217E+00
   2.492  0.219E+00  0.216E+00
   2.502  0.218E+00  0.215E+00
   2.512  0.217E+00  0.215E+00
   2.522  0.217E+00  0.214E+00
   2.532  0.216E+00  0.213E+00
   2.542  0.215E+00  0.213E+00
   2.552  0.215E+00  0.212E+00
   2.562  0.215E+00  0.212E+00
   2.572  0.215E+00  0.212E+00
   2.582  0.216E+00  0.213E+00
   2.592  0.216E+00  0.213E+00
   2.602  0.217E+00  0.214E+00
   2.612  0.217E+00  0.214E+00
   2.622  0.218E+00  0.215E+00
   2.632  0.218E+00  0.215E+00
   2.642  0.218E+00  0.215E+00
   2.652  0.218E+00  0.215E+00
   2.662  0.218E+00  0.215E+00
   2.672  0.217E+00  0.214E+00
   2.682  0.216E+00  0.213E+00
   2.692  0.215E+00  0.213E+00
   2.702  0.215E+00  0.212E+00
   2.712  0.214E+00  0.211E+00
   2.722  0.213E+00  0.210E+00
   2.732  0.213E+00  0.210E+00
   2.742  0.212E+00  0.210E+00
   2.752  0.212E+00  0.210E+00
   2.762  0.213E+00  0.210E+00
   2.772  0.213E+00  0.210E+00
   2.782  0.214E+00  0.211E+00
   2.792  0.214E+00  0.212E+00
   2.802  0.215E+00  0.212E+00
   2.812  0.216E+00  0.213E+00
   2.822  0.216E+00  0.213E+00
   2.832  0.216E+00  0.213E+00
   2.842  0.216E+00  0.213E+00
   2.852  0.215E+00  0.212E+00
   2.862  0.215E+00  0.212E+00
   2.872  0.214E+00  0.211E+00
   2.882  0.213E+00  0.210E+00
   2.892  0.212E+00  0.209E+00
   2.902  0.211E+00  0.208E+00
   2.912  0.211E+00  0.208E+00
   2.922  0.210E+00  0.207E+00
   2.932  0.210E+00  0.207E+00
   2.942  0.210E+00  0.207E+00
   2.952  0.211E+00  0.208E+00
   2.962  0.211E+00  0.208E+00
   2.972  0.212E+00  0.209E+00
   2.982  0.213E+00  0.210E+00
   2.992  0.213E+00  0.210E+00
   3.002  0.214E+00  0.211E+00
   3.012  0.214E+00  0.211E+00
   3.022  0.214E+00  0.211E+00
   3.032  0.214E+00  0.211E+00
   3.042  0.214E+00  0.210E+00
   3.052  0.213E+00  0.210E+00
   3.062  0.212E+00  0.209E+00
   3.072  0.211E+00  0.208E+00
   3.082  0.210E+00  0.207E+00
   3.092  0.209E+00  0.206E+00
   3.102  0.209E+00  0.206E+00
   3.112  0.208E+00  0.205E+00
   3.122  0.208E+00  0.205E+00
   3.132  0.208E+00  0.205E+00
   3.142  0.209E+00  0.206E+00
   3.152  0.209E+00  0.206E+00
   3.162  0.210E+00  0.207E+00
   3.172  0.211E+00  0.208E+00
   3.182  0.212E+00  0.209E+00
   3.192  0.212E+00  0.209E+00
   3.202  0.213E+00  0.209E+00
   3.212  0.213E+00  0.210E+00
   3.222  0.212E+00  0.209E+00
   3.232  0.212E+00  0.209E+00
   3.242  0.211E+00  0.208E+00
   3.252  0.210E+00  0.207E+00
   3.262  0.209E+00  0.206E+00
   3.272  0.208E+00  0.205E+00
   3.282  0.208E+00  0.204E+00
   3.292  0.207E+00  0.204E+00
   3.302  0.206E+00  0.203E+00
   3.312  0.206E+00  0.203E+00
   3.322  0.206E+00  0.203E+00
   3.332  0.207E+00  0.204E+00
   3.342  0.208E+00  0.204E+00
   3.352  0.208E+00  0.205E+00
   3.362  0.209E+00  0.206E+00
   3.372  0.210E+00  0.207E+00
   3.382  0.211E+00  0.208E+00
   3.392  0.211E+00  0.208E+00
   3.402  0.211E+00  0.208E+00
   3.412  0.211E+00  0.208E+00
   3.422  0.211E+00  0.208E+00
   3.432  0.210E+00  0.207E+00
   3.442  0.209E+00  0.206E+00
   3.452  0.208E+00  0.205E+00
   3.462  0.207E+00  0.204E+00
   3.472  0.206E+00  0.203E+00
   3.482  0.205E+00  0.202E+00
   3.492  0.205E+00  0.202E+00
   3.502  0.205E+00  0.202E+00
   3.512  0.205E+00  0.202E+00
   3.522  0.205E+00  0.202E+00
   3.532  0.206E+00  0.203E+00
   3.542  0.207E+00  0.204E+00
   3.552  0.208E+00  0.205E+00
   3.562  0.209E+00  0.205E+00
   3.572  0.210E+00  0.206E+00
   3.582  0.210E+00  0.207E+00
   3.592  0.210E+00  0.207E+00
   3.602  0.210E+00  0.207E+00
   3.612  0.210E+00  0.207E+00
   3.622  0.209E+00  0.206E+00
   3.632  0.208E+00  0.205E+00
   3.642  0.207E+00  0.204E+00
   3.652  0.206E+00  0.203E+00
   3.662  0.205E+00  0.202E+00
   3.672  0.205E+00  0.201E+00
   3.682  0.204E+00  0.201E+00
   3.692  0.204E+00  0.200E+00
   3.702  0.204E+00  0.200E+00
   3.712  0.204E+00  0.201E+00
   3.722  0.205E+00  0.201E+00
   3.732  0.206E+00  0.202E+00
   3.742  0.207E+00  0.203E+00
   3.752  0.208E+00  0.204E+00
   3.762  0.208E+00  0.205E+00
   3.772  0.209E+00  0.206E+00
   3.782  0.210E+00  0.206E+00
   3.792  0.210E+00  0.206E+00
   3.802  0.209E+00  0.206E+00
   3.812  0.209E+00  0.205E+00
   3.822  0.208E+00  0.204E+00
   3.832  0.207E+00  0.204E+00
   3.842  0.206E+00  0.202E+00
   3.852  0.205E+00  0.201E+00
   3.862  0.204E+00  0.201E+00
   3.872  0.203E+00  0.200E+00
   3.882  0.203E+00  0.199E+00
   3.892  0.203E+00  0.199E+00
   3.902  0.203E+00  0.200E+00
   3.912  0.204E+00  0.200E+00
   3.922  0.205E+00  0.201E+00
   3.932  0.206E+00  0.202E+00
   3.942  0.207E+00  0.203E+00
   3.952  0.208E+00  0.204E+00
   3.962  0.208E+00  0.205E+00
   3.972  0.209E+00  0.205E+00
   3.982  0.209E+00  0.206E+00
   3.992  0.209E+00  0.205E+00
   4.002  0.209E+00  0.205E+00
   4.012  0.208E+00  0.204E+00
   4.022  0.207E+00  0.203E+00
   4.032  0.206E+00  0.202E+00
   4.042  0.205E+00  0.201E+00
   4.052  0.204E+00  0.200E+00
   4.062  0.203E+00  0.200E+00
   4.072  0.203E+00  0.199E+00
   4.082  0.202E+00  0.199E+00
   4.092  0.203E+00  0.199E+00
   4.102  0.203E+00  0.199E+00
   4.112  0.204E+00  0.200E+00
   4.122  0.205E+00  0.201E+00
   4.132  0.206E+00  0.202E+00
   4.142  0.207E+00  0.203E+00
   4.152  0.208E+00  0.204E+00
   4.162  0.209E+00  0.205E+00
   4.172  0.209E+00  0.205E+00
   4.182  0.209E+00  0.205E+00
   4.192  0.209E+00  0.205E+00
   4.202  0.208E+00  0.204E+00
   4.212  0.207E+00  0.204E+00
   4.222  0.206E+00  0.203E+00
   4.232  0.205E+00  0.202E+00
   4.242  0.204E+00  0.201E+00
   4.252  0.203E+00  0.200E+00
   4.262  0.203E+00  0.199E+00
   4.272  0.203E+00  0.199E+00
   4.282  0.203E+00  0.199E+00
   4.292  0.203E+00  0.199E+00
   4.302  0.204E+00  0.200E+00
   4.312  0.204E+00  0.201E+00
   4.322  0.206E+00  0.202E+00
   4.332  0.207E+00  0.203E+00
   4.342  0.208E+00  0.204E+00
   4.352  0.208E+00  0.204E+00
   4.362  0.209E+00  0.205E+00
   4.372  0.209E+00  0.205E+00
   4.382  0.209E+00  0.205E+00
   4.392  0.209E+00  0.205E+00
   4.402  0.208E+00  0.204E+00
   4.412  0.207E+00  0.203E+00
   4.422  0.206E+00  0.202E+00
   4.432  0.205E+00  0.201E+00
   4.442  0.204E+00  0.200E+00
   4.452  0.204E+00  0.200E+00
   4.462  0.203E+00  0.199E+00
   4.472  0.203E+00  0.199E+00
   4.482  0.203E+00  0.199E+00
   4.492  0.204E+00  0.200E+00
   4.502  0.205E+00  0.201E+00
   4.512  0.206E+00  0.202E+00
   4.522  0.207E+00  0.203E+00
   4.532  0.208E+00  0.204E+00
   4.542  0.209E+00  0.205E+00
   4.552  0.209E+00  0.205E+00
   4.562  0.210E+00  0.206E+00
   4.572  0.210E+00  0.206E+00
   4.582  0.210E+00  0.205E+00
   4.592  0.209E+00  0.205E+00
   4.602  0.208E+00  0.204E+00
   4.612  0.208E+00  0.203E+00
   4.622  0.207E+00  0.202E+00
   4.632  0.206E+00  0.202E+00
   4.642  0.205E+00  0.201E+00
   4.652  0.204E+00  0.200E+00
   4.662  0.204E+00  0.200E+00
   4.672  0.204E+00  0.200E+00
   4.682  0.205E+00  0.201E+00
   4.692  0.206E+00  0.201E+00
   4.702  0.207E+00  0.202E+00
   4.712  0.208E+00  0.203E+00
   4.722  0.209E+00  0.204E+00
   4.732  0.210E+00  0.205E+00
   4.742  0.210E+00  0.206E+00
   4.752  0.211E+00  0.206E+00
   4.762  0.211E+00  0.207E+00
   4.772  0.211E+00  0.207E+00
   4.782  0.211E+00  0.206E+00
   4.792  0.210E+00  0.206E+00
   4.802  0.209E+00  0.205E+00
   4.812  0.208E+00  0.204E+00
   4.822  0.208E+00  0.203E+00
   4.832  0.207E+00  0.203E+00
   4.842  0.207E+00  0.202E+00
   4.852  0.206E+00  0.202E+00
   4.862  0.206E+00  0.202E+00
   4.872  0.207E+00  0.202E+00
   4.882  0.208E+00  0.203E+00
   4.892  0.208E+00  0.204E+00
   4.902  0.210E+00  0.205E+00
   4.912  0.211E+00  0.206E+00
   4.922  0.212E+00  0.207E+00
   4.932  0.213E+00  0.209E+00
   4.942  0.214E+00  0.210E+00
   4.952  0.216E+00  0.211E+00
   4.962  0.217E+00  0.212E+00
   4.972  0.218E+00  0.213E+00
   4.982  0.220E+00  0.215E+00
   4.992  0.222E+00  0.218E+00
   5.002  0.226E+00  0.221E+00
   5.012  0.231E+00  0.226E+00
   5.022  0.239E+00  0.234E+00
   5.032  0.249E+00  0.244E+00
   5.042  0.263E+00  0.257E+00
   5.052  0.281E+00  0.276E+00
   5.062  0.305E+00  0.299E+00
   5.072  0.335E+00  0.329E+00
   5.082  0.373E+00  0.366E+00
   5.092  0.420E+00  0.413E+00
   5.102  0.478E+00  0.470E+00
   5.112  0.547E+00  0.538E+00
   5.122  0.630E+00  0.620E+00
   5.132  0.728E+00  0.717E+00
   5.142  0.841E+00  0.829E+00
   5.152  0.972E+00  0.959E+00
   5.162  0.112E+01  0.111E+01
   5.172  0.129E+01  0.127E+01
   5.182  0.148E+01  0.146E+01
   5.192  0.168E+01  0.166E+01
   5.202  0.190E+01  0.188E+01
   5.212  0.214E+01  0.211E+01
   5.222  0.239E+01  0.236E+01
   5.232  0.265E+01  0.262E+01
   5.242  0.292E+01  0.288E+01
   5.252  0.319E+01  0.315E+01
   5.262  0.346E+01  0.342E+01
   5.272  0.372E+01  0.367E+01
   5.282  0.397E+01  0.392E+01
   5.292  0.420E+01  0.415E+01
   5.302  0.442E+01  0.436E+01
   5.312  0.461E+01  0.455E+01
   5.322  0.478E+01  0.472E+01
   5.332  0.491E+01  0.485E+01
   5.342  0.502E+01  0.496E+01
   5.352  0.509E+01  0.503E+01
   5.362  0.514E+01  0.508E+01
   5.372  0.516E+01  0.509E+01
   5.382  0.515E+01  0.508E+01
   5.392  0.511E+01  0.504E+01
   5.402  0.505E+01  0.499E+01
   5.412  0.497E+01  0.491E+01
   5.422  0.488E+01  0.482E+01
   5.432  0.478E+01  0.471E+01
   5.442  0.466E+01  0.460E+01
   5.452  0.454E+01  0.448E+01
   5.462  0.442E+01  0.436E+01
   5.472  0.430E+01  0.424E+01
   5.482  0.417E+01  0.412E+01
   5.492  0.405E+01  0.400E+01
   5.502  0.394E+01  0.388E+01
   5.512  0.383E+01  0.377E+01
   5.522  0.372E+01  0.367E+01
   5.532  0.362E+01  0.357E+01
   5.542  0.353E+01  0.347E+01
   5.552  0.344E+01  0.339E+01
   5.562  0.336E+01  0.331E+01
   5.572  0.328E+01  0.323E+01
   5.582  0.322E+01  0.316E+01
   5.592  0.315E+01  0.310E+01
   5.602  0.309E+01  0.304E+01
   5.612  0.304E+01  0.299E+01
   5.622  0.299E+01  0.293E+01
   5.632  0.294E+01  0.289E+01
   5.642  0.289E+01  0.284E+01
   5.652  0.285E+01  0.280E+01
   5.662  0.282E+01  0.277E+01
   5.672  0.278E+01  0.273E+01
   5.682  0.275E+01  0.270E+01
   5.692  0.271E+01  0.266E+01
   5.702  0.268E+01  0.263E+01
   5.712  0.265E+01  0.261E+01
   5.722  0.263E+01  0.258E+01
   5.732  0.260E+01  0.255E+01
   5.742  0.258E+01  0.253E+01
   5.752  0.255E+01  0.250E+01
   5.762  0.253E+01  0.248E+01
   5.772  0.251E+01  0.246E+01
   5.782  0.249E+01  0.244E+01
   5.792  0.247E+01  0.242E+01
   5.802  0.246E+01  0.240E+01
   5.812  0.244E+01  0.239E+01
   5.822  0.242E+01  0.237E+01
   5.832  0.241E+01  0.236E+01
   5.842  0.239E+01  0.234E+01
   5.852  0.238E+01  0.233E+01
   5.862  0.237E+01  0.232E+01
   5.872  0.236E+01  0.230E+01
   5.882  0.234E+01  0.229E+01
   5.892  0.233E+01  0.228E+01
   5.902  0.232E+01  0.227E+01
   5.912  0.231E+01  0.226E+01
   5.922  0.230E+01  0.225E+01
   5.932  0.230E+01  0.224E+01
   5.942  0.229E+01  0.224E+01
   5.952  0.228E+01  0.223E+01
   5.962  0.228E+01  0.222E+01
   5.972  0.227E+01  0.222E+01
   5.982  0.227E+01  0.221E+01
   5.992  0.226E+01  0.221E+01
   6.002  0.226E+01  0.220E+01
   6.012  0.225E+01  0.220E+01
   6.022  0.225E+01  0.220E+01
   6.032  0.225E+01  0.219E+01
   6.042  0.225E+01  0.219E+01
   6.052  0.225E+01  0.219E+01
   6.062  0.225E+01  0.219E+01
   6.072  0.225E+01  0.219E+01
   6.082  0.225E+01  0.219E+01
   6.092  0.226E+01  0.219E+01
   6.102  0.226E+01  0.220E+01
   6.112  0.226E+01  0.220E+01
   6.122  0.227E+01  0.221E+01
   6.132  0.227E+01  0.221E+01
   6.142  0.228E+01  0.222E+01
   6.152  0.229E+01  0.223E+01
   6.162  0.230E+01  0.224E+01
   6.172  0.231E+01  0.225E+01
   6.182  0.233E+01  0.226E+01
   6.192  0.234E+01  0.227E+01
   6.202  0.236E+01  0.229E+01
   6.212  0.238E+01  0.230E+01
   6.222  0.240E+01  0.232E+01
   6.232  0.242E+01  0.235E+01
   6.242  0.245E+01  0.237E+01
   6.252  0.247E+01  0.240E+01
   6.262  0.251E+01  0.243E+01
   6.272  0.254E+01  0.246E+01
   6.282  0.258E+01  0.250E+01
   6.292  0.263E+01  0.254E+01
   6.302  0.267E+01  0.259E+01
   6.312  0.273E+01  0.264E+01
   6.322  0.278E+01  0.269E+01
   6.332  0.284E+01  0.275E+01
   6.342  0.291E+01  0.281E+01
   6.352  0.298E+01  0.287E+01
   6.362  0.305E+01  0.294E+01
   6.372  0.312E+01  0.301E+01
   6.382  0.319E+01  0.308E+01
   6.392  0.326E+01  0.314E+01
   6.402  0.332E+01  0.321E+01
   6.412  0.339E+01  0.327E+01
   6.422  0.344E+01  0.332E+01
   6.432  0.348E+01  0.336E+01
   6.442  0.352E+01  0.339E+01
   6.452  0.354E+01  0.341E+01
   6.462  0.354E+01  0.341E+01
   6.472  0.352E+01  0.339E+01
   6.482  0.349E+01  0.336E+01
   6.492  0.343E+01  0.331E+01
   6.502  0.336E+01  0.324E+01
   6.512  0.327E+01  0.314E+01
   6.522  0.315E+01  0.303E+01
   6.532  0.302E+01  0.291E+01
   6.542  0.287E+01  0.276E+01
   6.552  0.271E+01  0.260E+01
   6.562  0.253E+01  0.244E+01
   6.572  0.235E+01  0.226E+01
   6.582  0.216E+01  0.208E+01
   6.592  0.197E+01  0.190E+01
   6.602  0.178E+01  0.171E+01
   6.612  0.159E+01  0.153E+01
   6.622  0.141E+01  0.136E+01
   6.632  0.124E+01  0.120E+01
   6.642  0.108E+01  0.104E+01
   6.652  0.934E+00  0.899E+00
   6.662  0.798E+00  0.768E+00
   6.672  0.675E+00  0.649E+00
   6.682  0.566E+00  0.544E+00
   6.692  0.469E+00  0.451E+00
   6.702  0.385E+00  0.371E+00
   6.712  0.314E+00  0.302E+00
   6.722  0.252E+00  0.243E+00
   6.732  0.201E+00  0.194E+00
   6.742  0.159E+00  0.153E+00
   6.752  0.124E+00  0.119E+00
   6.762  0.959E-01  0.922E-01
   6.772  0.734E-01  0.706E-01
   6.782  0.556E-01  0.535E-01
   6.792  0.417E-01  0.401E-01
   6.802  0.309E-01  0.297E-01
   6.812  0.227E-01  0.218E-01
   6.822  0.165E-01  0.159E-01
   6.832  0.119E-01  0.114E-01
   6.842  0.845E-02  0.812E-02
   6.852  0.595E-02  0.572E-02
   6.862  0.415E-02  0.399E-02
   6.872  0.286E-02  0.275E-02
   6.882  0.195E-02  0.188E-02
   6.892  0.132E-02  0.127E-02
   6.902  0.881E-03  0.848E-03
   6.912  0.583E-03  0.561E-03
   6.922  0.382E-03  0.367E-03
   6.932  0.247E-03  0.238E-03
   6.942  0.158E-03  0.152E-03
   6.952  0.100E-03  0.965E-04
   6.962  0.630E-04  0.605E-04
   6.972  0.391E-04  0.376E-04
   6.982  0.240E-04  0.231E-04
   6.992  0.146E-04  0.140E-04
   7.002  0.877E-05  0.843E-05
   7.012  0.522E-05  0.502E-05
   7.022  0.307E-05  0.295E-05
   7.032  0.179E-05  0.172E-05
   7.042  0.103E-05  0.991E-06
   7.052  0.588E-06  0.565E-06
   7.062  0.331E-06  0.319E-06
   7.072  0.185E-06  0.178E-06
   7.082  0.102E-06  0.982E-07
   7.092  0.558E-07  0.537E-07
   7.102  0.302E-07  0.290E-07
   7.112  0.161E-07  0.155E-07
   7.122  0.853E-08  0.820E-08
   7.132  0.447E-08  0.429E-08
   7.142  0.231E-08  0.222E-08
   7.152  0.118E-08  0.114E-08
   7.162  0.600E-09  0.577E-09
   7.172  0.300E-09  0.288E-09
   7.182  0.149E-09  0.143E-09
   7.192  0.718E-10  0.690E-10
   7.202  0.349E-10  0.336E-10
   7.212  0.150E-10  0.145E-10
   7.222  0.597E-11  0.574E-11
   7.232  0.000E+00  0.000E+00
   7.242  0.000E+00  0.000E+00
   7.252  0.000E+00  0.000E+00
   7.262  0.000E+00  0.000E+00
   7.272  0.000E+00  0.000E+00
   7.282  0.000E+00  0.000E+00
   7.292  0.000E+00  0.000E+00
   7.302  0.000E+00  0.000E+00
   7.312  0.000E+00  0.000E+00
   7.322  0.000E+00  0.000E+00
   7.332  0.477E-11  0.439E-11
   7.342  0.111E-10  0.102E-10
   7.352  0.244E-10  0.224E-10
   7.362  0.515E-10  0.474E-10
   7.372  0.106E-09  0.975E-10
   7.382  0.214E-09  0.197E-09
   7.392  0.428E-09  0.393E-09
   7.402  0.843E-09  0.775E-09
   7.412  0.164E-08  0.151E-08
   7.422  0.317E-08  0.292E-08
   7.432  0.605E-08  0.557E-08
   7.442  0.114E-07  0.105E-07
   7.452  0.214E-07  0.196E-07
   7.462  0.395E-07  0.363E-07
   7.472  0.722E-07  0.664E-07
   7.482  0.131E-06  0.120E-06
   7.492  0.234E-06  0.215E-06
   7.502  0.414E-06  0.381E-06
   7.512  0.726E-06  0.668E-06
   7.522  0.126E-05  0.116E-05
   7.532  0.216E-05  0.199E-05
   7.542  0.366E-05  0.337E-05
   7.552  0.615E-05  0.566E-05
   7.562  0.102E-04  0.940E-05
   7.572  0.168E-04  0.155E-04
   7.582  0.273E-04  0.252E-04
   7.592  0.440E-04  0.405E-04
   7.602  0.701E-04  0.645E-04
   7.612  0.110E-03  0.102E-03
   7.622  0.172E-03  0.158E-03
   7.632  0.266E-03  0.245E-03
   7.642  0.406E-03  0.373E-03
   7.652  0.613E-03  0.564E-03
   7.662  0.916E-03  0.843E-03
   7.672  0.136E-02  0.125E-02
   7.682  0.198E-02  0.183E-02
   7.692  0.287E-02  0.264E-02
   7.702  0.412E-02  0.379E-02
   7.712  0.584E-02  0.538E-02
   7.722  0.820E-02  0.755E-02
   7.732  0.114E-01  0.105E-01
   7.742  0.157E-01  0.144E-01
   7.752  0.213E-01  0.196E-01
   7.762  0.287E-01  0.264E-01
   7.772  0.383E-01  0.352E-01
   7.782  0.505E-01  0.465E-01
   7.792  0.659E-01  0.607E-01
   7.802  0.852E-01  0.785E-01
   7.812  0.109E+00  0.100E+00
   7.822  0.138E+00  0.127E+00
   7.832  0.173E+00  0.159E+00
   7.842  0.215E+00  0.198E+00
   7.852  0.264E+00  0.243E+00
   7.862  0.321E+00  0.296E+00
   7.872  0.387E+00  0.356E+00
   7.882  0.461E+00  0.425E+00
   7.892  0.545E+00  0.502E+00
   7.902  0.637E+00  0.587E+00
   7.912  0.738E+00  0.680E+00
   7.922  0.847E+00  0.780E+00
   7.932  0.963E+00  0.887E+00
   7.942  0.108E+01  0.999E+00
   7.952  0.121E+01  0.111E+01
   7.962  0.134E+01  0.123E+01
   7.972  0.146E+01  0.135E+01
   7.982  0.159E+01  0.147E+01
   7.992  0.171E+01  0.158E+01
   8.002  0.183E+01  0.169E+01
   8.012  0.194E+01  0.179E+01
   8.022  0.203E+01  0.188E+01
   8.032  0.212E+01  0.196E+01
   8.042  0.219E+01  0.202E+01
   8.052  0.225E+01  0.208E+01
   8.062  0.230E+01  0.212E+01
   8.072  0.233E+01  0.215E+01
   8.082  0.234E+01  0.217E+01
   8.092  0.235E+01  0.217E+01
   8.102  0.234E+01  0.216E+01
   8.112  0.232E+01  0.214E+01
   8.122  0.229E+01  0.212E+01
   8.132  0.225E+01  0.208E+01
   8.142  0.220E+01  0.204E+01
   8.152  0.215E+01  0.199E+01
   8.162  0.210E+01  0.195E+01
   8.172  0.204E+01  0.189E+01
   8.182  0.198E+01  0.184E+01
   8.192  0.193E+01  0.179E+01
   8.202  0.187E+01  0.174E+01
   8.212  0.181E+01  0.169E+01
   8.222  0.176E+01  0.164E+01
   8.232  0.171E+01  0.159E+01
   8.242  0.166E+01  0.155E+01
   8.252  0.162E+01  0.151E+01
   8.262  0.158E+01  0.147E+01
   8.272  0.154E+01  0.143E+01
   8.282  0.150E+01  0.140E+01
   8.292  0.147E+01  0.137E+01
   8.302  0.144E+01  0.134E+01
   8.312  0.141E+01  0.131E+01
   8.322  0.138E+01  0.129E+01
   8.332  0.136E+01  0.127E+01
   8.342  0.133E+01  0.125E+01
   8.352  0.131E+01  0.123E+01
   8.362  0.129E+01  0.121E+01
   8.372  0.127E+01  0.119E+01
   8.382  0.126E+01  0.118E+01
   8.392  0.124E+01  0.117E+01
   8.402  0.123E+01  0.115E+01
   8.412  0.121E+01  0.114E+01
   8.422  0.120E+01  0.113E+01
   8.432  0.119E+01  0.112E+01
   8.442  0.118E+01  0.111E+01
   8.452  0.117E+01  0.110E+01
   8.462  0.116E+01  0.109E+01
   8.472  0.115E+01  0.108E+01
   8.482  0.114E+01  0.107E+01
   8.492  0.113E+01  0.106E+01
   8.502  0.112E+01  0.106E+01
   8.512  0.111E+01  0.105E+01
   8.522  0.111E+01  0.104E+01
   8.532  0.110E+01  0.104E+01
   8.542  0.109E+01  0.103E+01
   8.552  0.109E+01  0.103E+01
   8.562  0.108E+01  0.102E+01
   8.572  0.108E+01  0.102E+01
   8.582  0.107E+01  0.101E+01
   8.592  0.107E+01  0.101E+01
   8.602  0.107E+01  0.101E+01
   8.612  0.106E+01  0.101E+01
   8.622  0.106E+01  0.100E+01
   8.632  0.106E+01  0.100E+01
   8.642  0.106E+01  0.100E+01
   8.652  0.106E+01  0.100E+01
   8.662  0.106E+01  0.101E+01
   8.672  0.107E+01  0.101E+01
   8.682  0.107E+01  0.102E+01
   8.692  0.108E+01  0.102E+01
   8.702  0.109E+01  0.103E+01
   8.712  0.110E+01  0.105E+01
   8.722  0.112E+01  0.106E+01
   8.732  0.114E+01  0.109E+01
   8.742  0.117E+01  0.111E+01
   8.752  0.121E+01  0.115E+01
   8.762  0.125E+01  0.119E+01
   8.772  0.130E+01  0.124E+01
   8.782  0.137E+01  0.130E+01
   8.792  0.144E+01  0.138E+01
   8.802  0.153E+01  0.146E+01
   8.812  0.163E+01  0.156E+01
   8.822  0.175E+01  0.167E+01
   8.832  0.188E+01  0.180E+01
   8.842  0.202E+01  0.194E+01
   8.852  0.218E+01  0.209E+01
   8.862  0.236E+01  0.226E+01
   8.872  0.255E+01  0.244E+01
   8.882  0.274E+01  0.263E+01
   8.892  0.295E+01  0.283E+01
   8.902  0.316E+01  0.303E+01
   8.912  0.337E+01  0.324E+01
   8.922  0.358E+01  0.344E+01
   8.932  0.378E+01  0.364E+01
   8.942  0.398E+01  0.382E+01
   8.952  0.415E+01  0.399E+01
   8.962  0.431E+01  0.414E+01
   8.972  0.444E+01  0.427E+01
   8.982  0.455E+01  0.437E+01
   8.992  0.463E+01  0.445E+01
   9.002  0.468E+01  0.450E+01
   9.012  0.469E+01  0.451E+01
   9.022  0.468E+01  0.450E+01
   9.032  0.463E+01  0.445E+01
   9.042  0.456E+01  0.438E+01
   9.052  0.446E+01  0.429E+01
   9.062  0.433E+01  0.417E+01
   9.072  0.419E+01  0.403E+01
   9.082  0.403E+01  0.387E+01
   9.092  0.386E+01  0.371E+01
   9.102  0.368E+01  0.354E+01
   9.112  0.349E+01  0.336E+01
   9.122  0.331E+01  0.318E+01
   9.132  0.313E+01  0.301E+01
   9.142  0.295E+01  0.284E+01
   9.152  0.279E+01  0.268E+01
   9.162  0.263E+01  0.252E+01
   9.172  0.248E+01  0.238E+01
   9.182  0.235E+01  0.225E+01
   9.192  0.222E+01  0.213E+01
   9.202  0.211E+01  0.203E+01
   9.212  0.202E+01  0.193E+01
   9.222  0.193E+01  0.185E+01
   9.232  0.186E+01  0.178E+01
   9.242  0.179E+01  0.172E+01
   9.252  0.173E+01  0.166E+01
   9.262  0.169E+01  0.161E+01
   9.272  0.164E+01  0.157E+01
   9.282  0.161E+01  0.154E+01
   9.292  0.158E+01  0.151E+01
   9.302  0.156E+01  0.149E+01
   9.312  0.153E+01  0.147E+01
   9.322  0.152E+01  0.145E+01
   9.332  0.150E+01  0.143E+01
   9.342  0.149E+01  0.142E+01
   9.352  0.148E+01  0.141E+01
   9.362  0.147E+01  0.140E+01
   9.372  0.146E+01  0.140E+01
   9.382  0.146E+01  0.139E+01
   9.392  0.146E+01  0.139E+01
   9.402  0.145E+01  0.138E+01
   9.412  0.145E+01  0.138E+01
   9.422  0.145E+01  0.138E+01
   9.432  0.146E+01  0.138E+01
   9.442  0.146E+01  0.138E+01
   9.452  0.147E+01  0.139E+01
   9.462  0.148E+01  0.140E+01
   9.472  0.150E+01  0.141E+01
   9.482  0.152E+01  0.142E+01
   9.492  0.154E+01  0.144E+01
   9.502  0.157E+01  0.147E+01
   9.512  0.161E+01  0.150E+01
   9.522  0.166E+01  0.154E+01
   9.532  0.172E+01  0.158E+01
   9.542  0.180E+01  0.164E+01
   9.552  0.188E+01  0.171E+01
   9.562  0.199E+01  0.179E+01
   9.572  0.211E+01  0.188E+01
   9.582  0.224E+01  0.199E+01
   9.592  0.240E+01  0.211E+01
   9.602  0.258E+01  0.225E+01
   9.612  0.278E+01  0.241E+01
   9.622  0.300E+01  0.258E+01
   9.632  0.324E+01  0.277E+01
   9.642  0.350E+01  0.297E+01
   9.652  0.378E+01  0.319E+01
   9.662  0.408E+01  0.342E+01
   9.672  0.439E+01  0.366E+01
   9.682  0.471E+01  0.391E+01
   9.692  0.503E+01  0.417E+01
   9.702  0.536E+01  0.443E+01
   9.712  0.569E+01  0.470E+01
   9.722  0.602E+01  0.496E+01
   9.732  0.634E+01  0.522E+01
   9.742  0.664E+01  0.546E+01
   9.752  0.693E+01  0.570E+01
   9.762  0.721E+01  0.593E+01
   9.772  0.746E+01  0.614E+01
   9.782  0.769E+01  0.633E+01
   9.792  0.789E+01  0.651E+01
   9.802  0.806E+01  0.666E+01
   9.812  0.821E+01  0.679E+01
   9.822  0.832E+01  0.690E+01
   9.832  0.840E+01  0.698E+01
   9.842  0.844E+01  0.703E+01
   9.852  0.844E+01  0.705E+01
   9.862  0.841E+01  0.704E+01
   9.872  0.834E+01  0.699E+01
   9.882  0.823E+01  0.692E+01
   9.892  0.808E+01  0.680E+01
   9.902  0.789E+01  0.666E+01
   9.912  0.766E+01  0.648E+01
   9.922  0.739E+01  0.627E+01
   9.932  0.709E+01  0.603E+01
   9.942  0.676E+01  0.576E+01
   9.952  0.641E+01  0.547E+01
   9.962  0.603E+01  0.516E+01
   9.972  0.564E+01  0.483E+01
   9.982  0.524E+01  0.450E+01
   9.992  0.483E+01  0.416E+01
  10.002  0.443E+01  0.382E+01
  10.012  0.403E+01  0.348E+01
  10.022  0.364E+01  0.316E+01
  10.032  0.327E+01  0.284E+01
  10.042  0.292E+01  0.255E+01
  10.052  0.259E+01  0.227E+01
  10.062  0.229E+01  0.201E+01
  10.072  0.202E+01  0.178E+01
  10.082  0.177E+01  0.156E+01
  10.092  0.155E+01  0.138E+01
  10.102  0.135E+01  0.121E+01
  10.112  0.118E+01  0.106E+01
  10.122  0.103E+01  0.936E+00
  10.132  0.906E+00  0.828E+00
  10.142  0.800E+00  0.736E+00
  10.152  0.711E+00  0.659E+00
  10.162  0.637E+00  0.595E+00
  10.172  0.576E+00  0.542E+00
  10.182  0.526E+00  0.498E+00
  10.192  0.485E+00  0.463E+00
  10.202  0.452E+00  0.434E+00
  10.212  0.426E+00  0.410E+00
  10.222  0.404E+00  0.391E+00
  10.232  0.387E+00  0.375E+00
  10.242  0.373E+00  0.363E+00
  10.252  0.361E+00  0.352E+00
  10.262  0.352E+00  0.343E+00
  10.272  0.344E+00  0.336E+00
  10.282  0.337E+00  0.330E+00
  10.292  0.331E+00  0.324E+00
  10.302  0.326E+00  0.319E+00
  10.312  0.322E+00  0.315E+00
  10.322  0.318E+00  0.311E+00
  10.332  0.314E+00  0.307E+00
  10.342  0.311E+00  0.304E+00
  10.352  0.307E+00  0.301E+00
  10.362  0.304E+00  0.298E+00
  10.372  0.301E+00  0.295E+00
  10.382  0.299E+00  0.292E+00
  10.392  0.296E+00  0.290E+00
  10.402  0.294E+00  0.287E+00
  10.412  0.291E+00  0.285E+00
  10.422  0.289E+00  0.283E+00
  10.432  0.287E+00  0.280E+00
  10.442  0.285E+00  0.278E+00
  10.452  0.283E+00  0.276E+00
  10.462  0.281E+00  0.275E+00
  10.472  0.279E+00  0.273E+00
  10.482  0.278E+00  0.271E+00
  10.492  0.276E+00  0.269E+00
  10.502  0.274E+00  0.268E+00
  10.512  0.273E+00  0.266E+00
  10.522  0.271E+00  0.265E+00
  10.532  0.270E+00  0.263E+00
  10.542  0.268E+00  0.262E+00
  10.552  0.267E+00  0.260E+00
  10.562  0.265E+00  0.259E+00
  10.572  0.264E+00  0.257E+00
  10.582  0.262E+00  0.256E+00
  10.592  0.261E+00  0.255E+00
  10.602  0.260E+00  0.253E+00
  10.612  0.259E+00  0.252E+00
  10.622  0.258E+00  0.251E+00
  10.632  0.257E+00  0.250E+00
  10.642  0.256E+00  0.250E+00
  10.652  0.255E+00  0.249E+00
  10.662  0.254E+00  0.248E+00
  10.672  0.254E+00  0.247E+00
  10.682  0.253E+00  0.246E+00
  10.692  0.252E+00  0.245E+00
  10.702  0.250E+00  0.244E+00
  10.712  0.249E+00  0.243E+00
  10.722  0.248E+00  0.242E+00
  10.732  0.247E+00  0.241E+00
  10.742  0.246E+00  0.240E+00
  10.752  0.246E+00  0.239E+00
  10.762  0.245E+00  0.238E+00
  10.772  0.244E+00  0.237E+00
  10.782  0.244E+00  0.237E+00
  10.792  0.243E+00  0.236E+00
  10.802  0.243E+00  0.236E+00
  10.812  0.242E+00  0.235E+00
  10.822  0.242E+00  0.235E+00
  10.832  0.242E+00  0.234E+00
  10.842  0.241E+00  0.234E+00
  10.852  0.240E+00  0.233E+00
  10.862  0.239E+00  0.232E+00
  10.872  0.239E+00  0.232E+00
  10.882  0.238E+00  0.231E+00
  10.892  0.237E+00  0.230E+00
  10.902  0.236E+00  0.229E+00
  10.912  0.235E+00  0.228E+00
  10.922  0.235E+00  0.228E+00
  10.932  0.234E+00  0.227E+00
  10.942  0.234E+00  0.227E+00
  10.952  0.234E+00  0.227E+00
  10.962  0.234E+00  0.226E+00
  10.972  0.234E+00  0.226E+00
  10.982  0.234E+00  0.226E+00
  10.992  0.233E+00  0.226E+00
  11.002  0.233E+00  0.226E+00
  11.012  0.233E+00  0.225E+00
  11.022  0.232E+00  0.225E+00
  11.032  0.232E+00  0.224E+00
  11.042  0.231E+00  0.224E+00
  11.052  0.230E+00  0.223E+00
  11.062  0.230E+00  0.222E+00
  11.072  0.229E+00  0.221E+00
  11.082  0.228E+00  0.221E+00
  11.092  0.228E+00  0.220E+00
  11.102  0.227E+00  0.220E+00
  11.112  0.227E+00  0.219E+00
  11.122  0.227E+00  0.219E+00
  11.132  0.227E+00  0.219E+00
  11.142  0.227E+00  0.219E+00
  11.152  0.227E+00  0.219E+00
  11.162  0.228E+00  0.220E+00
  11.172  0.228E+00  0.220E+00
  11.182  0.228E+00  0.219E+00
  11.192  0.227E+00  0.219E+00
  11.202  0.227E+00  0.219E+00
  11.212  0.226E+00  0.218E+00
  11.222  0.226E+00  0.218E+00
  11.232  0.225E+00  0.217E+00
  11.242  0.224E+00  0.216E+00
  11.252  0.224E+00  0.215E+00
  11.262  0.223E+00  0.215E+00
  11.272  0.223E+00  0.214E+00
  11.282  0.222E+00  0.214E+00
  11.292  0.222E+00  0.214E+00
  11.302  0.222E+00  0.214E+00
  11.312  0.223E+00  0.214E+00
  11.322  0.223E+00  0.214E+00
  11.332  0.223E+00  0.215E+00
  11.342  0.224E+00  0.215E+00
  11.352  0.224E+00  0.215E+00
  11.362  0.224E+00  0.215E+00
  11.372  0.224E+00  0.215E+00
  11.382  0.223E+00  0.215E+00
  11.392  0.223E+00  0.214E+00
  11.402  0.222E+00  0.213E+00
  11.412  0.222E+00  0.213E+00
  11.422  0.221E+00  0.212E+00
  11.432  0.220E+00  0.211E+00
  11.442  0.220E+00  0.211E+00
  11.452  0.219E+00  0.210E+00
  11.462  0.219E+00  0.210E+00
  11.472  0.219E+00  0.210E+00
  11.482  0.219E+00  0.210E+00
  11.492  0.219E+00  0.210E+00
  11.502  0.220E+00  0.211E+00
  11.512  0.220E+00  0.211E+00
  11.522  0.221E+00  0.212E+00
  11.532  0.221E+00  0.212E+00
  11.542  0.221E+00  0.212E+00
  11.552  0.221E+00  0.212E+00
  11.562  0.221E+00  0.212E+00
  11.572  0.221E+00  0.211E+00
  11.582  0.220E+00  0.211E+00
  11.592  0.219E+00  0.210E+00
  11.602  0.219E+00  0.209E+00
  11.612  0.218E+00  0.208E+00
  11.622  0.217E+00  0.208E+00
  11.632  0.217E+00  0.207E+00
  11.642  0.217E+00  0.207E+00
  11.652  0.217E+00  0.207E+00
  11.662  0.217E+00  0.207E+00
  11.672  0.217E+00  0.208E+00
  11.682  0.218E+00  0.208E+00
  11.692  0.218E+00  0.208E+00
  11.702  0.219E+00  0.209E+00
  11.712  0.220E+00  0.209E+00
  11.722  0.220E+00  0.210E+00
  11.732  0.220E+00  0.210E+00
  11.742  0.220E+00  0.210E+00
  11.752  0.220E+00  0.209E+00
  11.762  0.219E+00  0.209E+00
  11.772  0.218E+00  0.208E+00
  11.782  0.218E+00  0.207E+00
  11.792  0.217E+00  0.207E+00
  11.802  0.216E+00  0.206E+00
  11.812  0.216E+00  0.205E+00
  11.822  0.216E+00  0.205E+00
  11.832  0.216E+00  0.205E+00
  11.842  0.216E+00  0.205E+00
  11.852  0.216E+00  0.205E+00
  11.862  0.217E+00  0.206E+00
  11.872  0.217E+00  0.206E+00
  11.882  0.218E+00  0.207E+00
  11.892  0.218E+00  0.207E+00
  11.902  0.219E+00  0.208E+00
  11.912  0.219E+00  0.208E+00
  11.922  0.219E+00  0.208E+00
  11.932  0.219E+00  0.208E+00
  11.942  0.219E+00  0.207E+00
  11.952  0.218E+00  0.207E+00
  11.962  0.217E+00  0.206E+00
  11.972  0.217E+00  0.205E+00
  11.982  0.216E+00  0.205E+00
  11.992  0.216E+00  0.204E+00
  12.002  0.215E+00  0.204E+00
  12.012  0.215E+00  0.204E+00
  12.022  0.215E+00  0.204E+00
  12.032  0.216E+00  0.204E+00
  12.042  0.216E+00  0.204E+00
  12.052  0.217E+00  0.205E+00
  12.062  0.217E+00  0.205E+00
  12.072  0.218E+00  0.206E+00
  12.082  0.219E+00  0.207E+00
  12.092  0.219E+00  0.207E+00
  12.102  0.219E+00  0.207E+00
  12.112  0.219E+00  0.207E+00
  12.122  0.219E+00  0.207E+00
  12.132  0.218E+00  0.206E+00
  12.142  0.218E+00  0.205E+00
  12.152  0.217E+00  0.205E+00
  12.162  0.216E+00  0.204E+00
  12.172  0.216E+00  0.203E+00
  12.182  0.216E+00  0.203E+00
  12.192  0.215E+00  0.203E+00
  12.202  0.215E+00  0.203E+00
  12.212  0.216E+00  0.203E+00
  12.222  0.216E+00  0.203E+00
  12.232  0.217E+00  0.204E+00
  12.242  0.217E+00  0.204E+00
  12.252  0.218E+00  0.205E+00
  12.262  0.219E+00  0.206E+00
  12.272  0.219E+00  0.206E+00
  12.282  0.220E+00  0.206E+00
  12.292  0.220E+00  0.206E+00
  12.302  0.219E+00  0.206E+00
  12.312  0.219E+00  0.206E+00
  12.322  0.219E+00  0.205E+00
  12.332  0.218E+00  0.204E+00
  12.342  0.217E+00  0.204E+00
  12.352  0.217E+00  0.203E+00
  12.362  0.216E+00  0.203E+00
  12.372  0.216E+00  0.202E+00
  12.382  0.216E+00  0.202E+00
  12.392  0.216E+00  0.202E+00
  12.402  0.217E+00  0.203E+00
  12.412  0.217E+00  0.203E+00
  12.422  0.218E+00  0.204E+00
  12.432  0.219E+00  0.204E+00
  12.442  0.219E+00  0.205E+00
  12.452  0.220E+00  0.205E+00
  12.462  0.220E+00  0.206E+00
  12.472  0.221E+00  0.206E+00
  12.482  0.221E+00  0.206E+00
  12.492  0.220E+00  0.205E+00
  12.502  0.220E+00  0.205E+00
  12.512  0.219E+00  0.204E+00
  12.522  0.219E+00  0.204E+00
  12.532  0.218E+00  0.203E+00
  12.542  0.218E+00  0.203E+00
  12.552  0.218E+00  0.202E+00
  12.562  0.218E+00  0.202E+00
  12.572  0.218E+00  0.202E+00
  12.582  0.218E+00  0.203E+00
  12.592  0.219E+00  0.203E+00
  12.602  0.219E+00  0.204E+00
  12.612  0.220E+00  0.204E+00
  12.622  0.221E+00  0.205E+00
  12.632  0.221E+00  0.205E+00
  12.642  0.222E+00  0.206E+00
  12.652  0.222E+00  0.206E+00
  12.662  0.222E+00  0.206E+00
  12.672  0.222E+00  0.206E+00
  12.682  0.222E+00  0.205E+00
  12.692  0.221E+00  0.205E+00
  12.702  0.221E+00  0.204E+00
  12.712  0.220E+00  0.204E+00
  12.722  0.220E+00  0.203E+00
  12.732  0.220E+00  0.203E+00
  12.742  0.220E+00  0.203E+00
  12.752  0.220E+00  0.203E+00
  12.762  0.220E+00  0.203E+00
  12.772  0.221E+00  0.203E+00
  12.782  0.221E+00  0.204E+00
  12.792  0.222E+00  0.204E+00
  12.802  0.223E+00  0.205E+00
  12.812  0.223E+00  0.205E+00
  12.822  0.224E+00  0.206E+00
  12.832  0.224E+00  0.206E+00
  12.842  0.224E+00  0.206E+00
  12.852  0.224E+00  0.206E+00
  12.862  0.224E+00  0.206E+00
  12.872  0.224E+00  0.205E+00
  12.882  0.223E+00  0.205E+00
  12.892  0.223E+00  0.204E+00
  12.902  0.223E+00  0.204E+00
  12.912  0.222E+00  0.204E+00
  12.922  0.222E+00  0.204E+00
  12.932  0.223E+00  0.204E+00
  12.942  0.223E+00  0.204E+00
  12.952  0.223E+00  0.204E+00
  12.962  0.224E+00  0.205E+00
  12.972  0.225E+00  0.205E+00
  12.982  0.225E+00  0.206E+00
  12.992  0.226E+00  0.206E+00
  13.002  0.227E+00  0.207E+00
  13.012  0.227E+00  0.207E+00
  13.022  0.227E+00  0.207E+00
  13.032  0.227E+00  0.207E+00
  13.042  0.227E+00  0.207E+00
  13.052  0.227E+00  0.206E+00
  13.062  0.227E+00  0.206E+00
  13.072  0.227E+00  0.206E+00
  13.082  0.227E+00  0.205E+00
  13.092  0.228E+00  0.205E+00
  13.102  0.229E+00  0.205E+00
  13.112  0.230E+00  0.205E+00
  13.122  0.232E+00  0.206E+00
  13.132  0.235E+00  0.206E+00
  13.142  0.239E+00  0.207E+00
  13.152  0.244E+00  0.207E+00
  13.162  0.251E+00  0.208E+00
  13.172  0.259E+00  0.208E+00
  13.182  0.270E+00  0.209E+00
  13.192  0.284E+00  0.209E+00
  13.202  0.301E+00  0.210E+00
  13.212  0.323E+00  0.210E+00
  13.222  0.350E+00  0.210E+00
  13.232  0.384E+00  0.211E+00
  13.242  0.426E+00  0.211E+00
  13.252  0.477E+00  0.212E+00
  13.262  0.538E+00  0.213E+00
  13.272  0.610E+00  0.215E+00
  13.282  0.695E+00  0.216E+00
  13.292  0.794E+00  0.218E+00
  13.302  0.906E+00  0.221E+00
  13.312  0.103E+01  0.224E+00
  13.322  0.118E+01  0.227E+00
  13.332  0.133E+01  0.230E+00
  13.342  0.150E+01  0.234E+00
  13.352  0.169E+01  0.238E+00
  13.362  0.188E+01  0.242E+00
  13.372  0.208E+01  0.246E+00
  13.382  0.229E+01  0.250E+00
  13.392  0.250E+01  0.254E+00
  13.402  0.271E+01  0.258E+00
  13.412  0.291E+01  0.262E+00
  13.422  0.311E+01  0.267E+00
  13.432  0.330E+01  0.271E+00
  13.442  0.348E+01  0.274E+00
  13.452  0.364E+01  0.278E+00
  13.462  0.378E+01  0.281E+00
  13.472  0.390E+01  0.285E+00
  13.482  0.400E+01  0.288E+00
  13.492  0.407E+01  0.290E+00
  13.502  0.412E+01  0.292E+00
  13.512  0.415E+01  0.294E+00
  13.522  0.416E+01  0.296E+00
  13.532  0.416E+01  0.297E+00
  13.542  0.413E+01  0.297E+00
  13.552  0.409E+01  0.298E+00
  13.562  0.403E+01  0.297E+00
  13.572  0.397E+01  0.297E+00
  13.582  0.390E+01  0.297E+00
  13.592  0.382E+01  0.296E+00
  13.602  0.374E+01  0.296E+00
  13.612  0.366E+01  0.295E+00
  13.622  0.358E+01  0.294E+00
  13.632  0.350E+01  0.294E+00
  13.642  0.342E+01  0.294E+00
  13.652  0.335E+01  0.293E+00
  13.662  0.328E+01  0.293E+00
  13.672  0.321E+01  0.293E+00
  13.682  0.315E+01  0.293E+00
  13.692  0.310E+01  0.292E+00
  13.702  0.305E+01  0.292E+00
  13.712  0.300E+01  0.292E+00
  13.722  0.296E+01  0.292E+00
  13.732  0.292E+01  0.292E+00
  13.742  0.289E+01  0.292E+00
  13.752  0.286E+01  0.292E+00
  13.762  0.283E+01  0.293E+00
  13.772  0.281E+01  0.293E+00
  13.782  0.279E+01  0.293E+00
  13.792  0.278E+01  0.294E+00
  13.802  0.277E+01  0.294E+00
  13.812  0.276E+01  0.295E+00
  13.822  0.276E+01  0.296E+00
  13.832  0.275E+01  0.296E+00
  13.842  0.276E+01  0.297E+00
  13.852  0.276E+01  0.298E+00
  13.862  0.277E+01  0.299E+00
  13.872  0.278E+01  0.300E+00
  13.882  0.280E+01  0.301E+00
  13.892  0.282E+01  0.303E+00
  13.902  0.284E+01  0.304E+00
  13.912  0.287E+01  0.306E+00
  13.922  0.291E+01  0.308E+00
  13.932  0.294E+01  0.311E+00
  13.942  0.299E+01  0.314E+00
  13.952  0.304E+01  0.317E+00
  13.962  0.309E+01  0.322E+00
  13.972  0.314E+01  0.327E+00
  13.982  0.320E+01  0.333E+00
  13.992  0.326E+01  0.340E+00
  14.002  0.333E+01  0.348E+00
  14.012  0.339E+01  0.357E+00
  14.022  0.346E+01  0.368E+00
  14.032  0.353E+01  0.381E+00
  14.042  0.359E+01  0.395E+00
  14.052  0.366E+01  0.410E+00
  14.062  0.372E+01  0.428E+00
  14.072  0.378E+01  0.447E+00
  14.082  0.383E+01  0.469E+00
  14.092  0.388E+01  0.492E+00
  14.102  0.392E+01  0.516E+00
  14.112  0.396E+01  0.542E+00
  14.122  0.399E+01  0.569E+00
  14.132  0.401E+01  0.597E+00
  14.142  0.403E+01  0.626E+00
  14.152  0.404E+01  0.655E+00
  14.162  0.405E+01  0.684E+00
  14.172  0.405E+01  0.713E+00
  14.182  0.404E+01  0.741E+00
  14.192  0.402E+01  0.767E+00
  14.202  0.400E+01  0.792E+00
  14.212  0.397E+01  0.815E+00
  14.222  0.393E+01  0.836E+00
  14.232  0.388E+01  0.853E+00
  14.242  0.383E+01  0.868E+00
  14.252  0.377E+01  0.878E+00
  14.262  0.371E+01  0.885E+00
  14.272  0.363E+01  0.888E+00
  14.282  0.355E+01  0.886E+00
  14.292  0.346E+01  0.879E+00
  14.302  0.336E+01  0.868E+00
  14.312  0.325E+01  0.852E+00
  14.322  0.314E+01  0.832E+00
  14.332  0.302E+01  0.808E+00
  14.342  0.289E+01  0.779E+00
  14.352  0.275E+01  0.747E+00
  14.362  0.262E+01  0.711E+00
  14.372  0.247E+01  0.673E+00
  14.382  0.233E+01  0.632E+00
  14.392  0.219E+01  0.590E+00
  14.402  0.205E+01  0.547E+00
  14.412  0.191E+01  0.504E+00
  14.422  0.177E+01  0.461E+00
  14.432  0.164E+01  0.420E+00
  14.442  0.152E+01  0.379E+00
  14.452  0.140E+01  0.341E+00
  14.462  0.129E+01  0.305E+00
  14.472  0.119E+01  0.271E+00
  14.482  0.110E+01  0.241E+00
  14.492  0.102E+01  0.213E+00
  14.502  0.944E+00  0.188E+00
  14.512  0.879E+00  0.166E+00
  14.522  0.823E+00  0.147E+00
  14.532  0.774E+00  0.130E+00
  14.542  0.733E+00  0.116E+00
  14.552  0.698E+00  0.104E+00
  14.562  0.668E+00  0.940E-01
  14.572  0.644E+00  0.858E-01
  14.582  0.623E+00  0.790E-01
  14.592  0.607E+00  0.736E-01
  14.602  0.593E+00  0.692E-01
  14.612  0.582E+00  0.658E-01
  14.622  0.573E+00  0.631E-01
  14.632  0.566E+00  0.610E-01
  14.642  0.560E+00  0.593E-01
  14.652  0.555E+00  0.581E-01
  14.662  0.551E+00  0.572E-01
  14.672  0.548E+00  0.564E-01
  14.682  0.545E+00  0.559E-01
  14.692  0.543E+00  0.555E-01
  14.702  0.541E+00  0.552E-01
  14.712  0.539E+00  0.549E-01
  14.722  0.537E+00  0.547E-01
  14.732  0.535E+00  0.545E-01
  14.742  0.533E+00  0.544E-01
  14.752  0.532E+00  0.542E-01
  14.762  0.530E+00  0.541E-01
  14.772  0.528E+00  0.539E-01
  14.782  0.527E+00  0.538E-01
  14.792  0.525E+00  0.537E-01
  14.802  0.524E+00  0.536E-01
  14.812  0.523E+00  0.535E-01
  14.822  0.521E+00  0.534E-01
  14.832  0.520E+00  0.533E-01
  14.842  0.519E+00  0.532E-01
  14.852  0.518E+00  0.531E-01
  14.862  0.517E+00  0.531E-01
  14.872  0.516E+00  0.530E-01
  14.882  0.514E+00  0.529E-01
  14.892  0.513E+00  0.527E-01
  14.902  0.512E+00  0.526E-01
  14.912  0.510E+00  0.525E-01
  14.922  0.509E+00  0.524E-01
  14.932  0.507E+00  0.522E-01
  14.942  0.506E+00  0.521E-01
  14.952  0.505E+00  0.520E-01
  14.962  0.504E+00  0.519E-01
  14.972  0.503E+00  0.518E-01
  14.982  0.502E+00  0.517E-01
  14.992  0.501E+00  0.516E-01
  15.002  0.500E+00  0.515E-01
  15.012  0.499E+00  0.514E-01
  15.022  0.499E+00  0.514E-01
  15.032  0.498E+00  0.513E-01
  15.042  0.497E+00  0.512E-01
  15.052  0.496E+00  0.510E-01
  15.062  0.494E+00  0.509E-01
  15.072  0.493E+00  0.508E-01
  15.082  0.492E+00  0.506E-01
  15.092  0.490E+00  0.505E-01
  15.102  0.489E+00  0.503E-01
  15.112  0.488E+00  0.502E-01
  15.122  0.487E+00  0.500E-01
  15.132  0.486E+00  0.499E-01
  15.142  0.485E+00  0.498E-01
  15.152  0.485E+00  0.498E-01
  15.162  0.484E+00  0.497E-01
  15.172  0.484E+00  0.496E-01
  15.182  0.483E+00  0.496E-01
  15.192  0.483E+00  0.495E-01
  15.202  0.482E+00  0.494E-01
  15.212  0.481E+00  0.493E-01
  15.222  0.480E+00  0.491E-01
  15.232  0.479E+00  0.490E-01
  15.242  0.478E+00  0.488E-01
  15.252  0.476E+00  0.486E-01
  15.262  0.475E+00  0.485E-01
  15.272  0.474E+00  0.483E-01
  15.282  0.472E+00  0.481E-01
  15.292  0.472E+00  0.480E-01
  15.302  0.471E+00  0.479E-01
  15.312  0.471E+00  0.478E-01
  15.322  0.470E+00  0.478E-01
  15.332  0.470E+00  0.477E-01
  15.342  0.470E+00  0.476E-01
  15.352  0.470E+00  0.476E-01
  15.362  0.470E+00  0.475E-01
  15.372  0.469E+00  0.474E-01
  15.382  0.468E+00  0.473E-01
  15.392  0.467E+00  0.471E-01
  15.402  0.466E+00  0.470E-01
  15.412  0.465E+00  0.468E-01
  15.422  0.463E+00  0.466E-01
  15.432  0.462E+00  0.464E-01
  15.442  0.461E+00  0.462E-01
  15.452  0.460E+00  0.460E-01
  15.462  0.459E+00  0.459E-01
  15.472  0.458E+00  0.458E-01
  15.482  0.458E+00  0.457E-01
  15.492  0.458E+00  0.456E-01
  15.502  0.458E+00  0.456E-01
  15.512  0.458E+00  0.455E-01
  15.522  0.459E+00  0.455E-01
  15.532  0.459E+00  0.454E-01
  15.542  0.458E+00  0.453E-01
  15.552  0.458E+00  0.452E-01
  15.562  0.457E+00  0.451E-01
  15.572  0.456E+00  0.449E-01
  15.582  0.455E+00  0.447E-01
  15.592  0.453E+00  0.445E-01
  15.602  0.452E+00  0.443E-01
  15.612  0.451E+00  0.440E-01
  15.622  0.449E+00  0.438E-01
  15.632  0.448E+00  0.437E-01
  15.642  0.448E+00  0.435E-01
  15.652  0.447E+00  0.434E-01
  15.662  0.447E+00  0.433E-01
  15.672  0.448E+00  0.433E-01
  15.682  0.448E+00  0.432E-01
  15.692  0.449E+00  0.432E-01
  15.702  0.449E+00  0.432E-01
  15.712  0.450E+00  0.431E-01
  15.722  0.450E+00  0.430E-01
  15.732  0.449E+00  0.429E-01
  15.742  0.448E+00  0.427E-01
  15.752  0.447E+00  0.426E-01
  15.762  0.446E+00  0.423E-01
  15.772  0.445E+00  0.421E-01
  15.782  0.443E+00  0.419E-01
  15.792  0.442E+00  0.416E-01
  15.802  0.440E+00  0.414E-01
  15.812  0.439E+00  0.412E-01
  15.822  0.439E+00  0.410E-01
  15.832  0.439E+00  0.409E-01
  15.842  0.439E+00  0.408E-01
  15.852  0.439E+00  0.408E-01
  15.862  0.440E+00  0.407E-01
  15.872  0.441E+00  0.407E-01
  15.882  0.442E+00  0.407E-01
  15.892  0.442E+00  0.406E-01
  15.902  0.443E+00  0.405E-01
  15.912  0.443E+00  0.404E-01
  15.922  0.442E+00  0.403E-01
  15.932  0.441E+00  0.401E-01
  15.942  0.440E+00  0.398E-01
  15.952  0.438E+00  0.396E-01
  15.962  0.437E+00  0.393E-01
  15.972  0.435E+00  0.391E-01
  15.982  0.434E+00  0.388E-01
  15.992  0.433E+00  0.386E-01
  16.002  0.432E+00  0.384E-01
  16.012  0.432E+00  0.382E-01
  16.022  0.433E+00  0.381E-01
  16.032  0.433E+00  0.381E-01
  16.042  0.434E+00  0.380E-01
  16.052  0.435E+00  0.380E-01
  16.062  0.437E+00  0.379E-01
  16.072  0.438E+00  0.379E-01
  16.082  0.438E+00  0.378E-01
  16.092  0.438E+00  0.377E-01
  16.102  0.438E+00  0.376E-01
  16.112  0.438E+00  0.374E-01
  16.122  0.437E+00  0.371E-01
  16.132  0.435E+00  0.369E-01
  16.142  0.434E+00  0.366E-01
  16.152  0.432E+00  0.363E-01
  16.162  0.431E+00  0.360E-01
  16.172  0.430E+00  0.358E-01
  16.182  0.429E+00  0.355E-01
  16.192  0.429E+00  0.354E-01
  16.202  0.429E+00  0.352E-01
  16.212  0.430E+00  0.351E-01
  16.222  0.431E+00  0.350E-01
  16.232  0.433E+00  0.349E-01
  16.242  0.434E+00  0.349E-01
  16.252  0.436E+00  0.348E-01
  16.262  0.437E+00  0.347E-01
  16.272  0.438E+00  0.346E-01
  16.282  0.438E+00  0.345E-01
  16.292  0.438E+00  0.343E-01
  16.302  0.437E+00  0.341E-01
  16.312  0.437E+00  0.338E-01
  16.322  0.435E+00  0.336E-01
  16.332  0.434E+00  0.333E-01
  16.342  0.433E+00  0.330E-01
  16.352  0.432E+00  0.327E-01
  16.362  0.432E+00  0.324E-01
  16.372  0.432E+00  0.321E-01
  16.382  0.432E+00  0.319E-01
  16.392  0.433E+00  0.317E-01
  16.402  0.434E+00  0.316E-01
  16.412  0.436E+00  0.315E-01
  16.422  0.438E+00  0.314E-01
  16.432  0.440E+00  0.313E-01
  16.442  0.441E+00  0.312E-01
  16.452  0.443E+00  0.310E-01
  16.462  0.444E+00  0.309E-01
  16.472  0.445E+00  0.307E-01
  16.482  0.445E+00  0.305E-01
  16.492  0.446E+00  0.302E-01
  16.502  0.445E+00  0.299E-01
  16.512  0.445E+00  0.296E-01
  16.522  0.445E+00  0.293E-01
  16.532  0.445E+00  0.290E-01
  16.542  0.445E+00  0.286E-01
  16.552  0.446E+00  0.283E-01
  16.562  0.447E+00  0.281E-01
  16.572  0.449E+00  0.278E-01
  16.582  0.451E+00  0.276E-01
  16.592  0.453E+00  0.273E-01
  16.602  0.456E+00  0.271E-01
  16.612  0.459E+00  0.269E-01
  16.622  0.462E+00  0.267E-01
  16.632  0.465E+00  0.265E-01
  16.642  0.469E+00  0.263E-01
  16.652  0.472E+00  0.261E-01
  16.662  0.475E+00  0.258E-01
  16.672  0.478E+00  0.255E-01
  16.682  0.481E+00  0.251E-01
  16.692  0.485E+00  0.248E-01
  16.702  0.489E+00  0.244E-01
  16.712  0.493E+00  0.240E-01
  16.722  0.498E+00  0.237E-01
  16.732  0.505E+00  0.233E-01
  16.742  0.512E+00  0.229E-01
  16.752  0.520E+00  0.225E-01
  16.762  0.529E+00  0.221E-01
  16.772  0.540E+00  0.217E-01
  16.782  0.552E+00  0.213E-01
  16.792  0.565E+00  0.210E-01
  16.802  0.579E+00  0.206E-01
  16.812  0.594E+00  0.202E-01
  16.822  0.610E+00  0.198E-01
  16.832  0.626E+00  0.193E-01
  16.842  0.643E+00  0.189E-01
  16.852  0.660E+00  0.184E-01
  16.862  0.677E+00  0.178E-01
  16.872  0.693E+00  0.173E-01
  16.882  0.708E+00  0.167E-01
  16.892  0.721E+00  0.161E-01
  16.902  0.733E+00  0.154E-01
  16.912  0.742E+00  0.148E-01
  16.922  0.748E+00  0.141E-01
  16.932  0.751E+00  0.134E-01
  16.942  0.750E+00  0.127E-01
  16.952  0.744E+00  0.120E-01
  16.962  0.734E+00  0.112E-01
  16.972  0.720E+00  0.105E-01
  16.982  0.701E+00  0.976E-02
  16.992  0.677E+00  0.903E-02
  17.002  0.650E+00  0.831E-02
  17.012  0.618E+00  0.760E-02
  17.022  0.583E+00  0.691E-02
  17.032  0.546E+00  0.624E-02
  17.042  0.506E+00  0.559E-02
  17.052  0.465E+00  0.498E-02
  17.062  0.424E+00  0.440E-02
  17.072  0.382E+00  0.386E-02
  17.082  0.342E+00  0.335E-02
  17.092  0.303E+00  0.289E-02
  17.102  0.266E+00  0.247E-02
  17.112  0.231E+00  0.210E-02
  17.122  0.199E+00  0.176E-02
  17.132  0.169E+00  0.147E-02
  17.142  0.143E+00  0.121E-02
  17.152  0.119E+00  0.990E-03
  17.162  0.987E-01  0.802E-03
  17.172  0.808E-01  0.643E-03
  17.182  0.655E-01  0.511E-03
  17.192  0.525E-01  0.403E-03
  17.202  0.417E-01  0.314E-03
  17.212  0.328E-01  0.242E-03
  17.222  0.255E-01  0.185E-03
  17.232  0.197E-01  0.140E-03
  17.242  0.150E-01  0.105E-03
  17.252  0.113E-01  0.783E-04
  17.262  0.846E-02  0.576E-04
  17.272  0.625E-02  0.419E-04
  17.282  0.457E-02  0.302E-04
  17.292  0.331E-02  0.216E-04
  17.302  0.237E-02  0.153E-04
  17.312  0.168E-02  0.107E-04
  17.322  0.118E-02  0.740E-05
  17.332  0.820E-03  0.508E-05
  17.342  0.564E-03  0.345E-05
  17.352  0.383E-03  0.232E-05
  17.362  0.258E-03  0.154E-05
  17.372  0.172E-03  0.102E-05
  17.382  0.113E-03  0.663E-06
  17.392  0.738E-04  0.428E-06
  17.402  0.476E-04  0.274E-06
  17.412  0.304E-04  0.173E-06
